»»»»»»»»»»»»»»»»»»»»»»»»»»»»»»»»»»»» Hysteresis ««««««««««««««««««««««««««««««««««««
»»»  Executed Version:	5.16.2
»»»  Vision Version:	5.16.10 (R)
»»»  Vision Compiled:	4/26/18
»»»  Driver Version:	5.16.6
»»»  Windows Version:	Windows 8
»»»  Processor Information:	x86 (AMD or Intel) - 8 Processors
»»»  Tester Name:	PPM21016-863
»»»  Tester S/N:	PPM21016-863
»»»  Internal Amp Type:	 RTI ML200V    
»»»  Internal Amp S/N:	 iAB2-0000     
»»»  Execution Count:	1
»»»»»»»»»»»»»»»»»»»»»»»»»»»»»»»»»»»»»»»»»»««««««««««««««««««««««««««««««««««««««««««

Stored:	5/23/2018 - 6:43:57
Configured:	05/23/18 06:37:56 AM
Executed:	05/23/18 06:43:17 AM

»»»»»»»»»»»»»»»»»»»»»»»»»»»»»»»»»»» Sample Info ««««««««««««««««««««««««««««««««««««
Sample Name:	Internal Reference Cap.
Lot Name:	N/A
Wafer Name:	N/A
Die Row/Column:	0/0
Capacitor Number:	0
Sample Area (cm2):	7.85e-005
Sample Thickness (µm):	1.00e-001

Mux Loop Adjustment:	Disabled

Amplifier:	Internal

»»»»»»»»»»»»»»»»»»»»»»»»»»»»»»»»»»» Tester Info «««««««««««««««««««««««««««««««««««
Tester Name:	PPM21016-863
Tester Serial Number:	PPM21016-863
Return Signal Amp. Level:	2.0 [Index: 1]

»»»»»»»»»»»»»»»»»»»»»»»»»»»»»»»» Hysteresis Info ««««««««««««««««««««««««««««««««««
Task Name:	Hyst-1
Volts:	3.00
Field:	300.00 (kV/cm)
Hysteresis Period (ms):	2.00e-001
Preset:	Enabled
Preset Delay (ms):	1.00e+003
Profile:	Double Bipolar

»»»»»»»»»»»»»»»»»»»»»»»»»»»»»»»»»»»»»» Data «««««««««««««««««««««««««««««««««««««««
Points:	401

Valid Data

Point	Time (ms)	Field (kV/cm)	Measured Polarization
   1	5.0000e-004	20.233154	-21.508916
   2	1.0000e-003	26.107788	-21.112569
   3	1.5000e-003	31.822205	-20.466293
   4	2.0000e-003	37.567139	-19.182323
   5	2.5000e-003	43.357849	-17.027355
   6	3.0000e-003	49.301147	-13.939713
   7	3.5000e-003	54.580688	-9.905986
   8	4.0000e-003	60.447693	-5.001799
   9	4.5000e-003	66.078186	0.499322
  10	5.0000e-003	72.433472	6.116290
  11	5.5000e-003	78.994751	11.528916
  12	6.0000e-003	84.365845	16.473865
  13	6.5000e-003	91.621399	20.506518
  14	7.0000e-003	97.587585	23.543210
  15	7.5000e-003	103.706360	25.612365
  16	8.0000e-003	110.038757	27.145192
  17	8.5000e-003	116.172791	28.443106
  18	9.0000e-003	122.062683	29.568860
  19	9.5000e-003	127.990723	30.541760
  20	1.0000e-002	132.820129	31.289938
  21	1.0500e-002	140.045166	32.236021
  22	1.1000e-002	145.721436	32.939684
  23	1.1500e-002	152.275085	33.597759
  24	1.2000e-002	158.126831	34.193084
  25	1.2500e-002	164.253235	34.720831
  26	1.3000e-002	170.097351	35.185291
  27	1.3500e-002	176.284790	35.783298
  28	1.4000e-002	182.258606	36.017673
  29	1.4500e-002	188.331604	36.424746
  30	1.5000e-002	194.305420	36.750298
  31	1.5500e-002	200.996399	37.024898
  32	1.6000e-002	206.054688	37.308616
  33	1.6500e-002	211.982727	37.587506
  34	1.7000e-002	218.208313	37.844408
  35	1.7500e-002	224.212646	38.049822
  36	1.8000e-002	230.216980	38.243436
  37	1.8500e-002	236.221313	38.445632
  38	1.9000e-002	242.332458	38.643537
  39	1.9500e-002	248.344421	38.810335
  40	2.0000e-002	253.845215	38.993760
  41	2.0500e-002	259.948730	39.137496
  42	2.1000e-002	266.105652	39.305903
  43	2.1500e-002	272.163391	39.267823
  44	2.2000e-002	278.121948	39.584257
  45	2.2500e-002	283.905029	39.725312
  46	2.3000e-002	290.336609	39.834723
  47	2.3500e-002	296.195984	40.031019
  48	2.4000e-002	302.421570	40.153302
  49	2.4500e-002	308.570862	40.297038
  50	2.5000e-002	314.430237	40.413421
  51	2.5500e-002	320.114136	40.525514
  52	2.6000e-002	314.254761	40.328681
  53	2.6500e-002	307.586670	40.337799
  54	2.7000e-002	302.146912	40.247159
  55	2.7500e-002	296.165466	40.107177
  56	2.8000e-002	290.054321	39.998839
  57	2.8500e-002	284.111023	39.948961
  58	2.9000e-002	278.488159	39.841695
  59	2.9500e-002	272.300720	39.667388
  60	3.0000e-002	266.258240	39.570313
  61	3.0500e-002	260.101318	39.411023
  62	3.1000e-002	254.089355	39.300003
  63	3.1500e-002	248.428345	39.187910
  64	3.2000e-002	242.355347	39.076890
  65	3.2500e-002	236.259460	38.948172
  66	3.3000e-002	230.224609	38.819453
  67	3.3500e-002	224.151611	38.680544
  68	3.4000e-002	218.589783	38.538953
  69	3.4500e-002	211.997986	38.405407
  70	3.5000e-002	206.024170	38.268107
  71	3.5500e-002	200.332642	38.116326
  72	3.6000e-002	194.129944	37.960791
  73	3.6500e-002	187.973022	37.786484
  74	3.7000e-002	182.121277	37.637921
  75	3.7500e-002	176.750183	37.518856
  76	3.8000e-002	170.127869	37.253374
  77	3.8500e-002	163.986206	37.061905
  78	3.9000e-002	158.103943	36.878480
  79	3.9500e-002	152.107239	36.644641
  80	4.0000e-002	145.965576	36.414020
  81	4.0500e-002	140.197754	36.157118
  82	4.1000e-002	134.231567	35.850339
  83	4.1500e-002	127.830505	35.558040
  84	4.2000e-002	121.971130	35.218544
  85	4.2500e-002	116.188049	34.866712
  86	4.3000e-002	109.687805	34.618392
  87	4.3500e-002	104.087830	34.090645
  88	4.4000e-002	98.197937	33.565043
  89	4.4500e-002	92.178345	33.047486
  90	4.5000e-002	86.204529	32.500967
  91	4.5500e-002	79.925537	31.835920
  92	4.6000e-002	74.119568	31.160683
  93	4.6500e-002	68.099976	30.411968
  94	4.7000e-002	62.347412	29.602649
  95	4.7500e-002	56.098938	28.664610
  96	4.8000e-002	50.323486	27.656849
  97	4.8500e-002	44.181824	26.522514
  98	4.9000e-002	38.475037	25.217627
  99	4.9500e-002	32.508850	23.787239
 100	5.0000e-002	26.535034	22.068843
 101	5.0500e-002	20.889282	20.113926
 102	5.1000e-002	14.778137	17.844720
 103	5.1500e-002	9.056091	15.223683
 104	5.2000e-002	3.250122	12.196645
 105	5.2500e-002	-2.479553	8.697102
 106	5.3000e-002	-8.987427	4.928322
 107	5.3500e-002	-13.931274	0.503076
 108	5.4000e-002	-19.874573	-4.220369
 109	5.4500e-002	-26.062012	-9.382530
 110	5.5000e-002	-31.730652	-14.826800
 111	5.5500e-002	-37.651062	-20.493110
 112	5.6000e-002	-44.006348	-26.043037
 113	5.6500e-002	-50.704956	-30.682278
 114	5.7000e-002	-57.418823	-33.322623
 115	5.7500e-002	-63.385010	-34.161440
 116	5.8000e-002	-69.625854	-34.855986
 117	5.8500e-002	-75.683594	-35.389096
 118	5.9000e-002	-82.160950	-35.829958
 119	5.9500e-002	-88.027954	-36.154973
 120	6.0000e-002	-93.742371	-36.431182
 121	6.0500e-002	-99.693298	-36.715973
 122	6.1000e-002	-105.842590	-36.953030
 123	6.1500e-002	-111.427307	-37.171852
 124	6.2000e-002	-117.240906	-37.371366
 125	6.2500e-002	-123.535156	-37.573026
 126	6.3000e-002	-129.631042	-37.754841
 127	6.3500e-002	-135.803223	-37.935047
 128	6.4000e-002	-141.639709	-38.094337
 129	6.4500e-002	-147.705078	-38.258990
 130	6.5000e-002	-153.717041	-38.392535
 131	6.5500e-002	-159.622192	-38.542707
 132	6.6000e-002	-165.634155	-38.727741
 133	6.6500e-002	-171.859741	-38.844660
 134	6.7000e-002	-177.780151	-38.988933
 135	6.7500e-002	-183.532715	-39.102634
 136	6.8000e-002	-189.537048	-39.367044
 137	6.8500e-002	-195.480347	-39.419604
 138	6.9000e-002	-202.011108	-39.458220
 139	6.9500e-002	-207.572937	-39.667924
 140	7.0000e-002	-213.775635	-39.779481
 141	7.0500e-002	-219.856262	-39.891573
 142	7.1000e-002	-226.066589	-40.029946
 143	7.1500e-002	-231.781006	-40.139357
 144	7.2000e-002	-237.434387	-40.263249
 145	7.2500e-002	-243.682861	-40.263249
 146	7.3000e-002	-249.603271	-40.412348
 147	7.3500e-002	-255.760193	-40.622053
 148	7.4000e-002	-261.390686	-40.728246
 149	7.4500e-002	-267.692566	-40.823712
 150	7.5000e-002	-273.811340	-40.903625
 151	7.5500e-002	-279.434204	-41.031271
 152	7.6000e-002	-273.742676	-40.934732
 153	7.6500e-002	-267.875671	-40.836584
 154	7.7000e-002	-261.650085	-40.725564
 155	7.7500e-002	-255.416870	-40.625807
 156	7.8000e-002	-249.855042	-40.505133
 157	7.8500e-002	-243.728638	-40.420930
 158	7.9000e-002	-237.899780	-40.311519
 159	7.9500e-002	-231.864929	-40.194599
 160	8.0000e-002	-225.105286	-40.096987
 161	8.0500e-002	-219.779968	-39.982749
 162	8.1000e-002	-214.103699	-39.879774
 163	8.1500e-002	-207.672119	-39.760173
 164	8.2000e-002	-201.652527	-39.636817
 165	8.2500e-002	-195.678711	-39.524188
 166	8.3000e-002	-189.346313	-39.409414
 167	8.3500e-002	-183.570862	-39.333792
 168	8.4000e-002	-177.917480	-39.179866
 169	8.4500e-002	-171.829224	-39.059192
 170	8.5000e-002	-165.840149	-39.018431
 171	8.5500e-002	-159.660339	-38.805508
 172	8.6000e-002	-153.541565	-38.678398
 173	8.6500e-002	-147.941589	-38.538953
 174	8.7000e-002	-141.632080	-38.435442
 175	8.7500e-002	-135.696411	-38.349629
 176	8.8000e-002	-129.714966	-38.175322
 177	8.8500e-002	-123.725891	-38.002625
 178	8.9000e-002	-118.080139	-37.883560
 179	8.9500e-002	-112.365723	-37.713007
 180	9.0000e-002	-105.438232	-37.624513
 181	9.0500e-002	-99.372864	-37.442161
 182	9.1000e-002	-93.635559	-37.297889
 183	9.1500e-002	-87.623596	-37.139136
 184	9.2000e-002	-81.840515	-36.953566
 185	9.2500e-002	-75.614929	-36.775505
 186	9.3000e-002	-69.236755	-36.622652
 187	9.3500e-002	-63.545227	-36.439764
 188	9.4000e-002	-57.472229	-36.230059
 189	9.4500e-002	-51.628113	-36.012846
 190	9.5000e-002	-45.585632	-35.802605
 191	9.5500e-002	-39.436340	-35.555894
 192	9.6000e-002	-33.691406	-35.291484
 193	9.6500e-002	-27.954102	-35.006158
 194	9.7000e-002	-21.553040	-34.686506
 195	9.7500e-002	-15.647888	-34.221509
 196	9.8000e-002	-9.307861	-33.884158
 197	9.8500e-002	-4.028320	-33.378937
 198	9.9000e-002	2.006531	-32.732661
 199	9.9500e-002	8.262634	-31.955521
 200	1.0000e-001	14.068604	-30.984767
 201	1.0050e-001	19.920349	-29.576905
 202	1.0100e-001	25.611877	-28.077867
 203	1.0150e-001	31.417847	-25.964196
 204	1.0200e-001	37.277222	-23.374803
 205	1.0250e-001	42.915344	-20.042058
 206	1.0300e-001	48.583984	-16.032466
 207	1.0350e-001	54.580688	-11.171722
 208	1.0400e-001	60.104370	-5.568162
 209	1.0450e-001	65.917969	0.520239
 210	1.0500e-001	72.204590	6.821025
 211	1.0550e-001	78.559875	12.414395
 212	1.0600e-001	84.846497	17.407612
 213	1.0650e-001	91.384888	21.425785
 214	1.0700e-001	98.022461	24.323568
 215	1.0750e-001	104.240417	26.355180
 216	1.0800e-001	110.649109	27.859581
 217	1.0850e-001	116.363525	29.079728
 218	1.0900e-001	122.116089	30.133614
 219	1.0950e-001	128.150940	31.075406
 220	1.1000e-001	134.208679	31.921733
 221	1.1050e-001	140.190125	32.686537
 222	1.1100e-001	146.286011	33.368211
 223	1.1150e-001	152.114868	33.989279
 224	1.1200e-001	158.111572	34.570123
 225	1.1250e-001	164.161682	35.105378
 226	1.1300e-001	170.280457	35.562867
 227	1.1350e-001	176.193237	35.965649
 228	1.1400e-001	182.289124	36.335179
 229	1.1450e-001	187.942505	36.691302
 230	1.1500e-001	194.206238	37.014171
 231	1.1550e-001	200.149536	37.312906
 232	1.1600e-001	206.260681	37.579998
 233	1.1650e-001	212.532043	37.788093
 234	1.1700e-001	218.986511	38.099700
 235	1.1750e-001	224.479675	38.333539
 236	1.1800e-001	230.255127	38.489611
 237	1.1850e-001	236.045837	38.674108
 238	1.1900e-001	242.141724	38.860750
 239	1.1950e-001	248.527527	39.054365
 240	1.2000e-001	253.784180	39.176648
 241	1.2050e-001	259.857178	39.347736
 242	1.2100e-001	265.937805	39.382598
 243	1.2150e-001	272.056580	39.556368
 244	1.2200e-001	278.083801	39.762855
 245	1.2250e-001	284.271240	39.926435
 246	1.2300e-001	290.260315	40.053545
 247	1.2350e-001	296.188354	40.185481
 248	1.2400e-001	302.101135	40.323318
 249	1.2450e-001	308.097839	40.437019
 250	1.2500e-001	314.186096	40.575392
 251	1.2550e-001	320.304871	40.694457
 252	1.2600e-001	314.529419	40.599527
 253	1.2650e-001	307.731628	40.499770
 254	1.2700e-001	302.276611	40.470272
 255	1.2750e-001	296.310425	40.302401
 256	1.2800e-001	289.688110	40.183872
 257	1.2850e-001	284.126282	40.066953
 258	1.2900e-001	278.457642	39.952715
 259	1.2950e-001	272.026062	39.855639
 260	1.3000e-001	266.197205	39.744083
 261	1.3050e-001	260.070801	39.622873
 262	1.3100e-001	254.203796	39.507026
 263	1.3150e-001	248.306274	39.312339
 264	1.3200e-001	242.416382	39.193810
 265	1.3250e-001	235.855103	39.180402
 266	1.3300e-001	230.300903	39.012531
 267	1.3350e-001	224.388123	38.868259
 268	1.3400e-001	217.979431	38.753484
 269	1.3450e-001	212.326050	38.588832
 270	1.3500e-001	206.237793	38.452068
 271	1.3550e-001	199.531555	38.318522
 272	1.3600e-001	193.756104	38.153869
 273	1.3650e-001	189.155579	38.000479
 274	1.3700e-001	182.487488	37.824027
 275	1.3750e-001	176.551819	37.677073
 276	1.3800e-001	169.853210	37.510811
 277	1.3850e-001	164.283752	37.314515
 278	1.3900e-001	158.241272	37.109101
 279	1.3950e-001	152.069092	36.842010
 280	1.4000e-001	146.240234	36.657513
 281	1.4050e-001	139.915466	36.402221
 282	1.4100e-001	134.025574	36.143710
 283	1.4150e-001	128.280640	35.857311
 284	1.4200e-001	122.367859	35.504407
 285	1.4250e-001	116.340637	35.168129
 286	1.4300e-001	110.267639	34.786263
 287	1.4350e-001	104.255676	34.378117
 288	1.4400e-001	97.946167	33.894885
 289	1.4450e-001	91.453552	33.355875
 290	1.4500e-001	86.212158	32.817401
 291	1.4550e-001	80.261230	32.226367
 292	1.4600e-001	74.226379	31.546303
 293	1.4650e-001	68.138123	30.777208
 294	1.4700e-001	62.255859	29.946435
 295	1.4750e-001	56.175232	29.071683
 296	1.4800e-001	50.010681	27.872453
 297	1.4850e-001	43.998718	26.923152
 298	1.4900e-001	38.642883	25.616656
 299	1.4950e-001	32.341003	24.172323
 300	1.5000e-001	26.443481	22.485570
 301	1.5050e-001	20.683289	20.556397
 302	1.5100e-001	14.816284	18.297381
 303	1.5150e-001	9.124756	15.695116
 304	1.5200e-001	3.326416	12.645552
 305	1.5250e-001	-2.059937	9.087013
 306	1.5300e-001	-8.377075	5.225984
 307	1.5350e-001	-14.198303	1.006688
 308	1.5400e-001	-20.347595	-3.743036
 309	1.5450e-001	-25.955200	-8.855319
 310	1.5500e-001	-31.829834	-14.305489
 311	1.5550e-001	-38.444519	-20.000224
 312	1.5600e-001	-43.907166	-25.531916
 313	1.5650e-001	-50.659180	-30.349754
 314	1.5700e-001	-57.655334	-33.039978
 315	1.5750e-001	-63.613892	-34.202738
 316	1.5800e-001	-69.625854	-34.777145
 317	1.5850e-001	-75.859070	-35.229807
 318	1.5900e-001	-81.962585	-35.607918
 319	1.5950e-001	-87.707520	-35.939905
 320	1.6000e-001	-94.177246	-36.217187
 321	1.6050e-001	-99.792480	-36.481061
 322	1.6100e-001	-106.033325	-36.645714
 323	1.6150e-001	-111.900330	-36.935867
 324	1.6200e-001	-118.057251	-37.182042
 325	1.6250e-001	-124.046326	-37.337041
 326	1.6300e-001	-130.111694	-37.540846
 327	1.6350e-001	-135.704041	-37.714616
 328	1.6400e-001	-141.578674	-37.833145
 329	1.6450e-001	-147.796631	-38.014960
 330	1.6500e-001	-153.709412	-38.200530
 331	1.6550e-001	-159.507751	-38.353920
 332	1.6600e-001	-165.817261	-38.486929
 333	1.6650e-001	-171.791077	-38.640855
 334	1.6700e-001	-177.703857	-38.786200
 335	1.6750e-001	-183.708191	-38.924573
 336	1.6800e-001	-189.575195	-39.028085
 337	1.6850e-001	-195.831299	-39.206146
 338	1.6900e-001	-201.591492	-39.291422
 339	1.6950e-001	-207.756042	-39.410487
 340	1.7000e-001	-213.829041	-39.554759
 341	1.7050e-001	-219.856262	-39.675969
 342	1.7100e-001	-225.952148	-39.798789
 343	1.7150e-001	-231.712341	-39.886746
 344	1.7200e-001	-237.266541	-40.048718
 345	1.7250e-001	-243.255615	-40.143111
 346	1.7300e-001	-250.038147	-40.251450
 347	1.7350e-001	-255.661011	-40.308837
 348	1.7400e-001	-261.779785	-40.475635
 349	1.7450e-001	-267.684937	-40.587728
 350	1.7500e-001	-273.666382	-40.683731
 351	1.7550e-001	-279.891968	-40.694457
 352	1.7600e-001	-273.712158	-40.655305
 353	1.7650e-001	-267.890930	-40.615080
 354	1.7700e-001	-261.795044	-40.507278
 355	1.7750e-001	-255.897522	-40.387677
 356	1.7800e-001	-249.992371	-40.270221
 357	1.7850e-001	-243.721008	-40.183872
 358	1.7900e-001	-237.976074	-40.080897
 359	1.7950e-001	-232.765198	-39.998839
 360	1.8000e-001	-225.685120	-39.893719
 361	1.8050e-001	-220.146179	-39.771436
 362	1.8100e-001	-213.668823	-39.617510
 363	1.8150e-001	-208.297729	-39.518825
 364	1.8200e-001	-201.873779	-39.411023
 365	1.8250e-001	-195.571899	-39.289277
 366	1.8300e-001	-189.811707	-39.165921
 367	1.8350e-001	-184.028625	-39.047392
 368	1.8400e-001	-177.497864	-39.057583
 369	1.8450e-001	-171.867371	-38.868795
 370	1.8500e-001	-166.076660	-38.701461
 371	1.8550e-001	-159.797668	-38.542707
 372	1.8600e-001	-153.747559	-38.434369
 373	1.8650e-001	-147.613525	-38.295460
 374	1.8700e-001	-141.593933	-38.154406
 375	1.8750e-001	-135.612488	-38.036413
 376	1.8800e-001	-129.493713	-37.903940
 377	1.8850e-001	-124.000549	-37.773612
 378	1.8900e-001	-117.927551	-37.627195
 379	1.8950e-001	-111.572266	-37.490967
 380	1.9000e-001	-105.751038	-37.337041
 381	1.9050e-001	-99.243164	-37.111783
 382	1.9100e-001	-93.872070	-37.041524
 383	1.9150e-001	-86.891174	-36.836647
 384	1.9200e-001	-81.604004	-36.692374
 385	1.9250e-001	-75.759888	-36.525040
 386	1.9300e-001	-69.824219	-36.337325
 387	1.9350e-001	-63.522339	-36.106704
 388	1.9400e-001	-57.670593	-35.959213
 389	1.9450e-001	-51.696777	-35.752190
 390	1.9500e-001	-45.433044	-35.521569
 391	1.9550e-001	-40.100098	-35.165983
 392	1.9600e-001	-33.386230	-34.988995
 393	1.9650e-001	-27.679443	-34.710641
 394	1.9700e-001	-21.644592	-34.401715
 395	1.9750e-001	-15.701294	-34.023604
 396	1.9800e-001	-9.780884	-33.590787
 397	1.9850e-001	-3.883362	-33.050704
 398	1.9900e-001	2.159119	-32.406037
 399	1.9950e-001	8.193970	-31.639088
 400	2.0000e-001	14.480591	-30.609873
 401	2.0050e-001	19.721985	-29.310886

Center data before PMax,±Pr and ±Vc Calc.

PMax (µC/cm2):	4.07e+001
Pr (µC/cm2):	1.04e+001
-Pr (µC/cm2):	-2.93e+001
Vc:	6.54e-001
-Vc:	-1.55e-001
C (Max-Eff) (nF):	1.07e+000
K (Eff):	1.53e+003
Vert. (±Pr) Shift (µC/cm2):	-9.43e+000
Horiz. Shift (±Vc):	2.50e-001
Offset (µC/cm2):	2.15e+001

A (Loop Area - µC/cm2·Volts):	5.46e+001



Hysteresis Version: 5.16.2 - Radiant Technologies, Inc., 1999 - 3/20/18

