»»»»»»»»»»»»»»»»»»»»»»»»»»»»»»»»»»»» Hysteresis ««««««««««««««««««««««««««««««««««««
»»»  Executed Version:	5.12.0
»»»  Vision Version:	5.12.5 (R)
»»»  Vision Compiled:	2/24/17
»»»  Driver Version:	5.12.4
»»»  Windows Version:	Windows 7
»»»  Processor Information:	x86 (AMD or Intel) - 2 Processors
»»»  Tester Name:	PMF0910-256
»»»  Tester S/N:	PMF0910-256
»»»  Internal Amp Type:	 RTI 100V      
»»»  Internal Amp S/N:	 iAB1-0000     
»»»  Execution Count:	1
»»»»»»»»»»»»»»»»»»»»»»»»»»»»»»»»»»»»»»»»»»««««««««««««««««««««««««««««««««««««««««««

Stored:	8/3/2017 - 10:51:58
Configured:	08/03/17 10:04:09 AM
Executed:	08/03/17 10:51:31 AM

»»»»»»»»»»»»»»»»»»»»»»»»»»»»»»»»»»» Sample Info ««««««««««««««««««««««««««««««««««««
Sample Name:	
Lot Name:	
Wafer Name:	
Die Row/Column:	0/0
Capacitor Number:	0
Sample Area (cm2):	4.91e-006
Sample Thickness (µm):	1.00e-001

Mux Loop Adjustment:	Disabled

Amplifier:	Internal

»»»»»»»»»»»»»»»»»»»»»»»»»»»»»»»»»»» Tester Info «««««««««««««««««««««««««««««««««««
Tester Name:	PMF0910-256
Tester Serial Number:	PMF0910-256
Return Signal Amp. Level:	16.67 [Index: 1]

»»»»»»»»»»»»»»»»»»»»»»»»»»»»»»»» Hysteresis Info ««««««««««««««««««««««««««««««««««
Task Name:	Hyst-1
Volts:	3.00
Field:	300.00 (kV/cm)
Hysteresis Period (ms):	3.20e+001
Preset:	Enabled
Preset Delay (ms):	1.00e+003
Profile:	Double Bipolar

»»»»»»»»»»»»»»»»»»»»»»»»»»»»»»»»»»»»»» Data «««««««««««««««««««««««««««««««««««««««
Points:	2001

Valid Data

Point	Time (ms)	Drive Voltage	Measured Polarization
   1	1.6000e-002	-0.0033	-10.780253
   2	3.2000e-002	0.0095	-10.768203
   3	4.8000e-002	0.0251	-10.673656
   4	6.4000e-002	0.0342	-10.590231
   5	8.0000e-002	0.0466	-10.523492
   6	9.6000e-002	0.0581	-10.323274
   7	1.1200e-001	0.0701	-10.191649
   8	1.2800e-001	0.0826	-9.953427
   9	1.4400e-001	0.0937	-9.657735
  10	1.6000e-001	0.1046	-9.513133
  11	1.7600e-001	0.1167	-8.941214
  12	1.9200e-001	0.1334	-8.684453
  13	2.0800e-001	0.1437	-8.327583
  14	2.2400e-001	0.1519	-7.967933
  15	2.4000e-001	0.1647	-7.545250
  16	2.5600e-001	0.1785	-7.131837
  17	2.7200e-001	0.1915	-6.627585
  18	2.8800e-001	0.2023	-6.169679
  19	3.0400e-001	0.2152	-5.730312
  20	3.2000e-001	0.2270	-5.325241
  21	3.3600e-001	0.2407	-4.874751
  22	3.5200e-001	0.2514	-4.539200
  23	3.6800e-001	0.2596	-4.008993
  24	3.8400e-001	0.2750	-3.535330
  25	4.0000e-001	0.2856	-2.882768
  26	4.1600e-001	0.2979	-2.444327
  27	4.3200e-001	0.3118	-2.011449
  28	4.4800e-001	0.3240	-1.637894
  29	4.6400e-001	0.3328	-1.062267
  30	4.8000e-001	0.3455	-0.237295
  31	4.9600e-001	0.3596	0.252126
  32	5.1200e-001	0.3704	0.739694
  33	5.2800e-001	0.3816	1.290293
  34	5.4400e-001	0.3953	1.794546
  35	5.6000e-001	0.4065	2.321045
  36	5.7600e-001	0.4181	2.911503
  37	5.9200e-001	0.4314	3.578896
  38	6.0800e-001	0.4440	4.177696
  39	6.2400e-001	0.4552	4.569789
  40	6.4000e-001	0.4665	5.090727
  41	6.5600e-001	0.4789	5.653376
  42	6.7200e-001	0.4880	6.212318
  43	6.8800e-001	0.5019	6.787017
  44	7.0400e-001	0.5126	7.215261
  45	7.2000e-001	0.5257	7.661117
  46	7.3600e-001	0.5392	8.281237
  47	7.5200e-001	0.5511	8.775293
  48	7.6800e-001	0.5617	9.196121
  49	7.8400e-001	0.5759	9.745794
  50	8.0000e-001	0.5874	10.339959
  51	8.1600e-001	0.5988	10.845138
  52	8.3200e-001	0.6120	11.241867
  53	8.4800e-001	0.6219	11.747973
  54	8.6400e-001	0.6363	12.218856
  55	8.8000e-001	0.6463	12.696227
  56	8.9600e-001	0.6590	13.299662
  57	9.1200e-001	0.6715	13.557350
  58	9.2800e-001	0.6831	14.070872
  59	9.4400e-001	0.6949	14.606640
  60	9.6000e-001	0.7070	15.047861
  61	9.7600e-001	0.7200	15.554895
  62	9.9200e-001	0.7313	16.051732
  63	1.0080e+000	0.7419	16.409529
  64	1.0240e+000	0.7532	16.765472
  65	1.0400e+000	0.7653	17.307729
  66	1.0560e+000	0.7797	17.750804
  67	1.0720e+000	0.7901	18.169778
  68	1.0880e+000	0.8027	18.635099
  69	1.1040e+000	0.8133	19.048512
  70	1.1200e+000	0.8263	19.435971
  71	1.1360e+000	0.8396	19.820649
  72	1.1520e+000	0.8494	20.353637
  73	1.1680e+000	0.8630	20.687333
  74	1.1840e+000	0.8749	21.160070
  75	1.2000e+000	0.8909	21.525283
  76	1.2160e+000	0.8999	21.934988
  77	1.2320e+000	0.9107	22.256634
  78	1.2480e+000	0.9214	22.789622
  79	1.2640e+000	0.9325	23.163177
  80	1.2800e+000	0.9474	23.617375
  81	1.2960e+000	0.9597	24.016884
  82	1.3120e+000	0.9706	24.439566
  83	1.3280e+000	0.9841	24.820536
  84	1.3440e+000	0.9924	25.182041
  85	1.3600e+000	1.0073	25.528714
  86	1.3760e+000	1.0207	26.112683
  87	1.3920e+000	1.0283	26.470480
  88	1.4080e+000	1.0423	26.908921
  89	1.4240e+000	1.0535	27.301941
  90	1.4400e+000	1.0664	27.630076
  91	1.4560e+000	1.0781	28.094470
  92	1.4720e+000	1.0911	28.629312
  93	1.4880e+000	1.1037	28.896269
  94	1.5040e+000	1.1158	29.260554
  95	1.5200e+000	1.1282	29.696214
  96	1.5360e+000	1.1390	30.173585
  97	1.5520e+000	1.1503	30.461862
  98	1.5680e+000	1.1639	30.640760
  99	1.5840e+000	1.1753	31.017096
 100	1.6000e+000	1.1877	31.485198
 101	1.6160e+000	1.1990	31.627019
 102	1.6320e+000	1.2113	31.741032
 103	1.6480e+000	1.2228	31.873584
 104	1.6640e+000	1.2359	32.041359
 105	1.6800e+000	1.2448	32.220258
 106	1.6960e+000	1.2580	32.374129
 107	1.7120e+000	1.2704	32.416768
 108	1.7280e+000	1.2822	32.669821
 109	1.7440e+000	1.2929	32.750464
 110	1.7600e+000	1.3056	32.860770
 111	1.7760e+000	1.3200	32.875601
 112	1.7920e+000	1.3300	32.972929
 113	1.8080e+000	1.3430	33.076745
 114	1.8240e+000	1.3552	33.098992
 115	1.8400e+000	1.3670	33.056353
 116	1.8560e+000	1.3765	33.153681
 117	1.8720e+000	1.3927	33.219493
 118	1.8880e+000	1.4022	33.320529
 119	1.9040e+000	1.4124	33.407661
 120	1.9200e+000	1.4263	33.279744
 121	1.9360e+000	1.4371	33.438250
 122	1.9520e+000	1.4518	33.421565
 123	1.9680e+000	1.4624	33.465131
 124	1.9840e+000	1.4738	33.533724
 125	2.0000e+000	1.4863	33.682034
 126	2.0160e+000	1.4988	33.741358
 127	2.0320e+000	1.5121	33.669984
 128	2.0480e+000	1.5213	33.720965
 129	2.0640e+000	1.5356	33.633833
 130	2.0800e+000	1.5446	33.727454
 131	2.0960e+000	1.5572	33.811805
 132	2.1120e+000	1.5727	33.750627
 133	2.1280e+000	1.5844	33.790485
 134	2.1440e+000	1.5929	33.834051
 135	2.1600e+000	1.6073	33.913768
 136	2.1760e+000	1.6173	34.011096
 137	2.1920e+000	1.6285	34.063004
 138	2.2080e+000	1.6413	34.085251
 139	2.2240e+000	1.6531	34.027781
 140	2.2400e+000	1.6673	34.051881
 141	2.2560e+000	1.6783	34.132524
 142	2.2720e+000	1.6917	34.191848
 143	2.2880e+000	1.7037	34.189994
 144	2.3040e+000	1.7142	34.234487
 145	2.3200e+000	1.7255	34.394847
 146	2.3360e+000	1.7390	34.386504
 147	2.3520e+000	1.7497	34.267857
 148	2.3680e+000	1.7632	34.318838
 149	2.3840e+000	1.7727	34.399482
 150	2.4000e+000	1.7866	34.487540
 151	2.4160e+000	1.8008	34.491248
 152	2.4320e+000	1.8098	34.422655
 153	2.4480e+000	1.8218	34.542230
 154	2.4640e+000	1.8349	34.716493
 155	2.4800e+000	1.8464	34.602480
 156	2.4960e+000	1.8591	34.606188
 157	2.5120e+000	1.8707	34.593211
 158	2.5280e+000	1.8827	34.661804
 159	2.5440e+000	1.8940	34.669220
 160	2.5600e+000	1.9077	34.652535
 161	2.5760e+000	1.9161	34.796210
 162	2.5920e+000	1.9312	34.738740
 163	2.6080e+000	1.9432	34.734105
 164	2.6240e+000	1.9530	34.891684
 165	2.6400e+000	1.9685	34.726690
 166	2.6560e+000	1.9778	34.808260
 167	2.6720e+000	1.9906	34.820310
 168	2.6880e+000	2.0026	34.887976
 169	2.7040e+000	2.0157	34.823091
 170	2.7200e+000	2.0280	34.870364
 171	2.7360e+000	2.0398	34.955642
 172	2.7520e+000	2.0514	34.960277
 173	2.7680e+000	2.0621	34.680343
 174	2.7840e+000	2.0741	34.935250
 175	2.8000e+000	2.0882	34.968620
 176	2.8160e+000	2.0985	35.044628
 177	2.8320e+000	2.1107	35.034432
 178	2.8480e+000	2.1238	35.016820
 179	2.8640e+000	2.1368	35.081706
 180	2.8800e+000	2.1473	35.236504
 181	2.8960e+000	2.1558	35.116002
 182	2.9120e+000	2.1706	35.141956
 183	2.9280e+000	2.1841	35.199426
 184	2.9440e+000	2.1969	35.279143
 185	2.9600e+000	2.2063	35.312512
 186	2.9760e+000	2.2170	35.372763
 187	2.9920e+000	2.2288	35.319928
 188	3.0080e+000	2.2437	35.372763
 189	3.0240e+000	2.2552	35.457114
 190	3.0400e+000	2.2681	35.419110
 191	3.0560e+000	2.2778	35.491411
 192	3.0720e+000	2.2915	35.433941
 193	3.0880e+000	2.3055	35.509950
 194	3.1040e+000	2.3141	35.439503
 195	3.1200e+000	2.3254	35.495119
 196	3.1360e+000	2.3403	35.518292
 197	3.1520e+000	2.3517	35.474726
 198	3.1680e+000	2.3639	35.572054
 199	3.1840e+000	2.3740	35.534977
 200	3.2000e+000	2.3891	35.598935
 201	3.2160e+000	2.3986	35.617474
 202	3.2320e+000	2.4133	35.591520
 203	3.2480e+000	2.4236	35.641574
 204	3.2640e+000	2.4326	35.658259
 205	3.2800e+000	2.4466	35.665675
 206	3.2960e+000	2.4601	35.648063
 207	3.3120e+000	2.4699	35.660113
 208	3.3280e+000	2.4828	35.669382
 209	3.3440e+000	2.4945	35.724072
 210	3.3600e+000	2.5072	35.725925
 211	3.3760e+000	2.5169	35.737976
 212	3.3920e+000	2.5320	35.779688
 213	3.4080e+000	2.5452	35.872381
 214	3.4240e+000	2.5546	35.822327
 215	3.4400e+000	2.5674	35.738902
 216	3.4560e+000	2.5809	35.858477
 217	3.4720e+000	2.5911	35.877016
 218	3.4880e+000	2.6024	35.898335
 219	3.5040e+000	2.6163	35.870527
 220	3.5200e+000	2.6264	35.877943
 221	3.5360e+000	2.6382	35.997517
 222	3.5520e+000	2.6499	35.997517
 223	3.5680e+000	2.6624	36.035522
 224	3.5840e+000	2.6746	36.016983
 225	3.6000e+000	2.6859	35.865893
 226	3.6160e+000	2.6983	36.203297
 227	3.6320e+000	2.7112	36.049426
 228	3.6480e+000	2.7251	36.094845
 229	3.6640e+000	2.7350	36.085576
 230	3.6800e+000	2.7454	36.175489
 231	3.6960e+000	2.7603	36.322871
 232	3.7120e+000	2.7731	36.123580
 233	3.7280e+000	2.7859	36.137485
 234	3.7440e+000	2.7950	36.352533
 235	3.7600e+000	2.8084	36.303406
 236	3.7760e+000	2.8199	36.331214
 237	3.7920e+000	2.8323	36.261694
 238	3.8080e+000	2.8428	36.301552
 239	3.8240e+000	2.8540	36.333995
 240	3.8400e+000	2.8670	36.286721
 241	3.8560e+000	2.8761	36.449862
 242	3.8720e+000	2.8888	36.324725
 243	3.8880e+000	2.9044	36.413711
 244	3.9040e+000	2.9165	36.530505
 245	3.9200e+000	2.9269	36.351606
 246	3.9360e+000	2.9397	36.453569
 247	3.9520e+000	2.9486	36.416492
 248	3.9680e+000	2.9630	36.424834
 249	3.9840e+000	2.9752	36.459131
 250	4.0000e+000	2.9879	36.514747
 251	4.0160e+000	2.9997	36.498062
 252	4.0320e+000	2.9881	36.439665
 253	4.0480e+000	2.9751	36.460058
 254	4.0640e+000	2.9638	36.526797
 255	4.0800e+000	2.9507	36.502697
 256	4.0960e+000	2.9382	36.434104
 257	4.1120e+000	2.9274	36.389611
 258	4.1280e+000	2.9151	36.314529
 259	4.1440e+000	2.9044	36.275598
 260	4.1600e+000	2.8876	36.314529
 261	4.1760e+000	2.8800	36.355314
 262	4.1920e+000	2.8679	36.333068
 263	4.2080e+000	2.8540	36.359022
 264	4.2240e+000	2.8436	36.347899
 265	4.2400e+000	2.8295	36.194954
 266	4.2560e+000	2.8155	36.343264
 267	4.2720e+000	2.8066	36.358095
 268	4.2880e+000	2.7956	36.243155
 269	4.3040e+000	2.7839	36.246863
 270	4.3200e+000	2.7713	36.239447
 271	4.3360e+000	2.7620	36.155096
 272	4.3520e+000	2.7480	36.041083
 273	4.3680e+000	2.7348	36.212566
 274	4.3840e+000	2.7231	36.195881
 275	4.4000e+000	2.7123	36.231105
 276	4.4160e+000	2.7000	36.202370
 277	4.4320e+000	2.6859	36.078161
 278	4.4480e+000	2.6742	36.190320
 279	4.4640e+000	2.6617	36.349753
 280	4.4800e+000	2.6505	36.186612
 281	4.4960e+000	2.6386	36.115238
 282	4.5120e+000	2.6276	36.080941
 283	4.5280e+000	2.6137	36.110603
 284	4.5440e+000	2.6023	36.086503
 285	4.5600e+000	2.5919	36.057768
 286	4.5760e+000	2.5820	36.147681
 287	4.5920e+000	2.5690	36.057768
 288	4.6080e+000	2.5542	36.204224
 289	4.6240e+000	2.5432	36.003079
 290	4.6400e+000	2.5307	35.908532
 291	4.6560e+000	2.5195	35.976198
 292	4.6720e+000	2.5089	35.955805
 293	4.6880e+000	2.4963	35.996590
 294	4.7040e+000	2.4817	36.031814
 295	4.7200e+000	2.4704	35.858477
 296	4.7360e+000	2.4588	35.793592
 297	4.7520e+000	2.4477	35.797299
 298	4.7680e+000	2.4340	35.728706
 299	4.7840e+000	2.4227	35.830669
 300	4.8000e+000	2.4067	35.850135
 301	4.8160e+000	2.3981	35.809350
 302	4.8320e+000	2.3883	35.786176
 303	4.8480e+000	2.3750	35.757441
 304	4.8640e+000	2.3640	35.690702
 305	4.8800e+000	2.3511	35.740756
 306	4.8960e+000	2.3398	35.706460
 307	4.9120e+000	2.3275	35.647136
 308	4.9280e+000	2.3167	35.663821
 309	4.9440e+000	2.3022	35.645282
 310	4.9600e+000	2.2909	35.598935
 311	4.9760e+000	2.2788	35.655478
 312	4.9920e+000	2.2682	35.637867
 313	5.0080e+000	2.2571	35.632305
 314	5.0240e+000	2.2415	35.572054
 315	5.0400e+000	2.2317	35.802861
 316	5.0560e+000	2.2211	35.603570
 317	5.0720e+000	2.2068	35.533123
 318	5.0880e+000	2.1969	35.557223
 319	5.1040e+000	2.1838	35.606351
 320	5.1200e+000	2.1708	35.482142
 321	5.1360e+000	2.1589	35.501607
 322	5.1520e+000	2.1474	35.464530
 323	5.1680e+000	2.1344	35.506242
 324	5.1840e+000	2.1218	35.515511
 325	5.2000e+000	2.1088	35.544246
 326	5.2160e+000	2.1009	35.489557
 327	5.2320e+000	2.0869	35.384813
 328	5.2480e+000	2.0765	35.458041
 329	5.2640e+000	2.0618	35.316220
 330	5.2800e+000	2.0494	35.365348
 331	5.2960e+000	2.0391	35.422818
 332	5.3120e+000	2.0266	35.336613
 333	5.3280e+000	2.0174	35.276362
 334	5.3440e+000	2.0025	35.279143
 335	5.3600e+000	1.9942	35.343101
 336	5.3760e+000	1.9778	35.241138
 337	5.3920e+000	1.9662	35.254116
 338	5.4080e+000	1.9570	35.305097
 339	5.4240e+000	1.9413	35.198499
 340	5.4400e+000	1.9323	35.090975
 341	5.4560e+000	1.9198	35.155860
 342	5.4720e+000	1.9064	35.166057
 343	5.4880e+000	1.8954	35.053898
 344	5.5040e+000	1.8844	35.181815
 345	5.5200e+000	1.8703	35.094683
 346	5.5360e+000	1.8594	35.083560
 347	5.5520e+000	1.8438	35.041847
 348	5.5680e+000	1.8337	35.060386
 349	5.5840e+000	1.8230	34.991793
 350	5.6000e+000	1.8089	34.938031
 351	5.6160e+000	1.7979	35.046482
 352	5.6320e+000	1.7882	34.980670
 353	5.6480e+000	1.7742	34.916711
 354	5.6640e+000	1.7625	34.904661
 355	5.6800e+000	1.7511	35.001062
 356	5.6960e+000	1.7398	34.962131
 357	5.7120e+000	1.7253	34.909296
 358	5.7280e+000	1.7126	34.842556
 359	5.7440e+000	1.7035	34.804552
 360	5.7600e+000	1.6901	34.788794
 361	5.7760e+000	1.6786	34.693320
 362	5.7920e+000	1.6650	34.836995
 363	5.8080e+000	1.6547	34.878707
 364	5.8240e+000	1.6430	34.886122
 365	5.8400e+000	1.6302	34.798990
 366	5.8560e+000	1.6171	34.810114
 367	5.8720e+000	1.6104	34.778598
 368	5.8880e+000	1.5958	34.731324
 369	5.9040e+000	1.5832	34.688685
 370	5.9200e+000	1.5686	34.657169
 371	5.9360e+000	1.5586	34.659023
 372	5.9520e+000	1.5456	34.614530
 373	5.9680e+000	1.5337	34.662731
 374	5.9840e+000	1.5227	34.761913
 375	6.0000e+000	1.5089	34.608969
 376	6.0160e+000	1.4995	34.523691
 377	6.0320e+000	1.4842	34.465294
 378	6.0480e+000	1.4748	34.412459
 379	6.0640e+000	1.4614	34.376308
 380	6.0800e+000	1.4520	34.423582
 381	6.0960e+000	1.4412	34.500517
 382	6.1120e+000	1.4278	34.356843
 383	6.1280e+000	1.4156	34.390212
 384	6.1440e+000	1.4021	34.335523
 385	6.1600e+000	1.3905	34.151063
 386	6.1760e+000	1.3787	34.263222
 387	6.1920e+000	1.3665	34.275272
 388	6.2080e+000	1.3538	34.325327
 389	6.2240e+000	1.3424	34.269711
 390	6.2400e+000	1.3315	34.102862
 391	6.2560e+000	1.3185	34.087104
 392	6.2720e+000	1.3089	34.208533
 393	6.2880e+000	1.2937	34.257661
 394	6.3040e+000	1.2825	34.067639
 395	6.3200e+000	1.2693	34.207606
 396	6.3360e+000	1.2572	34.114913
 397	6.3520e+000	1.2475	34.084324
 398	6.3680e+000	1.2335	34.098228
 399	6.3840e+000	1.2211	34.069493
 400	6.4000e+000	1.2116	34.142721
 401	6.4160e+000	1.1980	34.151990
 402	6.4320e+000	1.1884	33.959187
 403	6.4480e+000	1.1760	34.049100
 404	6.4640e+000	1.1620	34.027781
 405	6.4800e+000	1.1486	34.020365
 406	6.4960e+000	1.1402	34.068566
 407	6.5120e+000	1.1277	33.948991
 408	6.5280e+000	1.1150	33.896156
 409	6.5440e+000	1.1037	33.868348
 410	6.5600e+000	1.0906	33.878544
 411	6.5760e+000	1.0784	33.840540
 412	6.5920e+000	1.0692	33.870202
 413	6.6080e+000	1.0550	33.828490
 414	6.6240e+000	1.0455	33.867421
 415	6.6400e+000	1.0295	33.737650
 416	6.6560e+000	1.0197	33.774727
 417	6.6720e+000	1.0055	33.692230
 418	6.6880e+000	0.9927	33.657934
 419	6.7040e+000	0.9833	33.677399
 420	6.7200e+000	0.9723	33.544848
 421	6.7360e+000	0.9599	33.644030
 422	6.7520e+000	0.9439	33.595829
 423	6.7680e+000	0.9338	33.467912
 424	6.7840e+000	0.9254	33.486451
 425	6.8000e+000	0.9097	33.412296
 426	6.8160e+000	0.8990	33.515186
 427	6.8320e+000	0.8877	33.393757
 428	6.8480e+000	0.8755	33.353899
 429	6.8640e+000	0.8630	33.251009
 430	6.8800e+000	0.8538	33.293648
 431	6.8960e+000	0.8381	33.372438
 432	6.9120e+000	0.8264	33.292721
 433	6.9280e+000	0.8127	33.270475
 434	6.9440e+000	0.8020	33.215786
 435	6.9600e+000	0.7905	33.182416
 436	6.9760e+000	0.7790	33.190758
 437	6.9920e+000	0.7668	33.204662
 438	7.0080e+000	0.7545	33.188905
 439	7.0240e+000	0.7415	33.106407
 440	7.0400e+000	0.7303	33.098065
 441	7.0560e+000	0.7206	33.298283
 442	7.0720e+000	0.7081	33.058207
 443	7.0880e+000	0.6939	33.091576
 444	7.1040e+000	0.6820	33.058207
 445	7.1200e+000	0.6706	33.036887
 446	7.1360e+000	0.6578	33.021129
 447	7.1520e+000	0.6475	32.884870
 448	7.1680e+000	0.6329	32.877454
 449	7.1840e+000	0.6229	32.853354
 450	7.2000e+000	0.6112	32.778272
 451	7.2160e+000	0.5959	32.837596
 452	7.2320e+000	0.5854	32.743049
 453	7.2480e+000	0.5743	32.644794
 454	7.2640e+000	0.5614	32.600301
 455	7.2800e+000	0.5535	32.672602
 456	7.2960e+000	0.5361	32.643867
 457	7.3120e+000	0.5263	32.531708
 458	7.3280e+000	0.5135	32.538196
 459	7.3440e+000	0.5032	32.449210
 460	7.3600e+000	0.4916	32.381544
 461	7.3760e+000	0.4783	32.376910
 462	7.3920e+000	0.4677	32.308316
 463	7.4080e+000	0.4562	32.308316
 464	7.4240e+000	0.4414	32.306463
 465	7.4400e+000	0.4299	32.160007
 466	7.4560e+000	0.4189	32.034871
 467	7.4720e+000	0.4057	32.060825
 468	7.4880e+000	0.3939	31.999647
 469	7.5040e+000	0.3839	32.007989
 470	7.5200e+000	0.3715	31.927346
 471	7.5360e+000	0.3587	31.885634
 472	7.5520e+000	0.3491	31.774402
 473	7.5680e+000	0.3347	31.654827
 474	7.5840e+000	0.3238	31.600138
 475	7.6000e+000	0.3120	31.667804
 476	7.6160e+000	0.2991	31.387870
 477	7.6320e+000	0.2855	31.367477
 478	7.6480e+000	0.2745	31.284980
 479	7.6640e+000	0.2619	31.069931
 480	7.6800e+000	0.2488	30.992996
 481	7.6960e+000	0.2371	30.835417
 482	7.7120e+000	0.2291	30.720477
 483	7.7280e+000	0.2146	30.637053
 484	7.7440e+000	0.2026	30.215297
 485	7.7600e+000	0.1915	30.356191
 486	7.7760e+000	0.1782	29.868624
 487	7.7920e+000	0.1663	29.649867
 488	7.8080e+000	0.1564	29.447795
 489	7.8240e+000	0.1401	28.993597
 490	7.8400e+000	0.1324	28.671951
 491	7.8560e+000	0.1176	28.223314
 492	7.8720e+000	0.1047	27.715354
 493	7.8880e+000	0.0937	27.336238
 494	7.9040e+000	0.0808	26.537220
 495	7.9200e+000	0.0698	26.089510
 496	7.9360e+000	0.0613	25.560230
 497	7.9520e+000	0.0462	24.808486
 498	7.9680e+000	0.0343	24.060450
 499	7.9840e+000	0.0225	23.259578
 500	8.0000e+000	0.0089	22.495783
 501	8.0160e+000	-0.0009	21.711596
 502	8.0320e+000	-0.0123	20.718849
 503	8.0480e+000	-0.0236	20.195131
 504	8.0640e+000	-0.0358	18.971577
 505	8.0800e+000	-0.0494	18.026103
 506	8.0960e+000	-0.0599	17.156638
 507	8.1120e+000	-0.0723	16.104567
 508	8.1280e+000	-0.0854	15.236956
 509	8.1440e+000	-0.0962	14.300752
 510	8.1600e+000	-0.1087	13.354351
 511	8.1760e+000	-0.1205	12.471909
 512	8.1920e+000	-0.1305	11.177908
 513	8.2080e+000	-0.1453	10.619893
 514	8.2240e+000	-0.1565	9.726328
 515	8.2400e+000	-0.1703	8.772512
 516	8.2560e+000	-0.1820	8.021695
 517	8.2720e+000	-0.1923	7.192088
 518	8.2880e+000	-0.2051	6.370824
 519	8.3040e+000	-0.2171	5.521751
 520	8.3200e+000	-0.2287	4.744053
 521	8.3360e+000	-0.2413	4.007140
 522	8.3520e+000	-0.2515	3.170117
 523	8.3680e+000	-0.2654	2.397981
 524	8.3840e+000	-0.2775	1.645309
 525	8.4000e+000	-0.2888	1.001090
 526	8.4160e+000	-0.3020	0.319793
 527	8.4320e+000	-0.3127	-0.367993
 528	8.4480e+000	-0.3248	-0.984405
 529	8.4640e+000	-0.3393	-1.647163
 530	8.4800e+000	-0.3511	-2.318264
 531	8.4960e+000	-0.3588	-2.945799
 532	8.5120e+000	-0.3746	-3.639146
 533	8.5280e+000	-0.3843	-4.148034
 534	8.5440e+000	-0.3957	-4.723660
 535	8.5600e+000	-0.4086	-5.283529
 536	8.5760e+000	-0.4212	-5.770170
 537	8.5920e+000	-0.4323	-6.259591
 538	8.6080e+000	-0.4437	-6.888053
 539	8.6240e+000	-0.4578	-7.357082
 540	8.6400e+000	-0.4684	-7.862262
 541	8.6560e+000	-0.4809	-8.311825
 542	8.6720e+000	-0.4941	-8.913406
 543	8.6880e+000	-0.5032	-9.306427
 544	8.7040e+000	-0.5180	-9.824583
 545	8.7200e+000	-0.5289	-10.264877
 546	8.7360e+000	-0.5400	-10.676436
 547	8.7520e+000	-0.5524	-11.044429
 548	8.7680e+000	-0.5642	-11.519020
 549	8.7840e+000	-0.5779	-11.952826
 550	8.8000e+000	-0.5884	-12.410732
 551	8.8160e+000	-0.6013	-12.804679
 552	8.8320e+000	-0.6133	-13.239411
 553	8.8480e+000	-0.6245	-13.654678
 554	8.8640e+000	-0.6375	-14.072726
 555	8.8800e+000	-0.6499	-14.556586
 556	8.8960e+000	-0.6594	-14.881940
 557	8.9120e+000	-0.6749	-15.240664
 558	8.9280e+000	-0.6866	-15.523379
 559	8.9440e+000	-0.6966	-15.870980
 560	8.9600e+000	-0.7084	-16.391917
 561	8.9760e+000	-0.7221	-16.640336
 562	8.9920e+000	-0.7325	-17.025940
 563	9.0080e+000	-0.7462	-17.322560
 564	9.0240e+000	-0.7594	-17.494043
 565	9.0400e+000	-0.7713	-17.936191
 566	9.0560e+000	-0.7826	-18.340334
 567	9.0720e+000	-0.7927	-18.740770
 568	9.0880e+000	-0.8060	-19.029974
 569	9.1040e+000	-0.8165	-19.219068
 570	9.1200e+000	-0.8298	-19.631555
 571	9.1360e+000	-0.8417	-19.821576
 572	9.1520e+000	-0.8565	-20.202546
 573	9.1680e+000	-0.8669	-20.334171
 574	9.1840e+000	-0.8781	-20.750365
 575	9.2000e+000	-0.8897	-21.099819
 576	9.2160e+000	-0.9014	-21.340822
 577	9.2320e+000	-0.9137	-21.722720
 578	9.2480e+000	-0.9258	-21.802436
 579	9.2640e+000	-0.9377	-22.125009
 580	9.2800e+000	-0.9493	-22.441094
 581	9.2960e+000	-0.9624	-22.645020
 582	9.3120e+000	-0.9724	-23.077899
 583	9.3280e+000	-0.9869	-23.055652
 584	9.3440e+000	-0.9964	-23.469065
 585	9.3600e+000	-1.0099	-23.736949
 586	9.3760e+000	-1.0195	-23.872282
 587	9.3920e+000	-1.0341	-24.158705
 588	9.4080e+000	-1.0455	-24.328334
 589	9.4240e+000	-1.0585	-24.598072
 590	9.4400e+000	-1.0693	-24.826098
 591	9.4560e+000	-1.0789	-25.004069
 592	9.4720e+000	-1.0942	-25.475879
 593	9.4880e+000	-1.1047	-25.462902
 594	9.5040e+000	-1.1198	-25.712248
 595	9.5200e+000	-1.1318	-25.923589
 596	9.5360e+000	-1.1414	-26.056140
 597	9.5520e+000	-1.1542	-26.244308
 598	9.5680e+000	-1.1664	-26.350906
 599	9.5840e+000	-1.1774	-26.554831
 600	9.6000e+000	-1.1909	-26.812519
 601	9.6160e+000	-1.2049	-27.123969
 602	9.6320e+000	-1.2130	-27.137873
 603	9.6480e+000	-1.2266	-27.390000
 604	9.6640e+000	-1.2365	-27.501232
 605	9.6800e+000	-1.2497	-27.621733
 606	9.6960e+000	-1.2616	-27.798778
 607	9.7120e+000	-1.2727	-28.007338
 608	9.7280e+000	-1.2858	-28.056466
 609	9.7440e+000	-1.2968	-28.197360
 610	9.7600e+000	-1.3102	-28.344743
 611	9.7760e+000	-1.3205	-28.525495
 612	9.7920e+000	-1.3310	-28.793379
 613	9.8080e+000	-1.3433	-28.727567
 614	9.8240e+000	-1.3587	-28.906465
 615	9.8400e+000	-1.3705	-29.090925
 616	9.8560e+000	-1.3807	-29.148395
 617	9.8720e+000	-1.3934	-29.249431
 618	9.8880e+000	-1.4043	-29.423695
 619	9.9040e+000	-1.4165	-29.572005
 620	9.9200e+000	-1.4287	-29.651721
 621	9.9360e+000	-1.4417	-29.707337
 622	9.9520e+000	-1.4524	-29.922386
 623	9.9680e+000	-1.4647	-30.074403
 624	9.9840e+000	-1.4796	-30.090161
 625	1.0000e+001	-1.4893	-30.277402
 626	1.0016e+001	-1.5022	-30.370095
 627	1.0032e+001	-1.5129	-30.485962
 628	1.0048e+001	-1.5257	-30.527674
 629	1.0064e+001	-1.5377	-30.729746
 630	1.0080e+001	-1.5503	-30.758481
 631	1.0096e+001	-1.5610	-30.772385
 632	1.0112e+001	-1.5735	-31.074566
 633	1.0128e+001	-1.5854	-31.192287
 634	1.0144e+001	-1.5984	-31.262734
 635	1.0160e+001	-1.6096	-31.272930
 636	1.0176e+001	-1.6218	-31.476856
 637	1.0192e+001	-1.6338	-31.470367
 638	1.0208e+001	-1.6422	-31.532472
 639	1.0224e+001	-1.6579	-31.678001
 640	1.0240e+001	-1.6689	-31.763279
 641	1.0256e+001	-1.6826	-31.838360
 642	1.0272e+001	-1.6926	-31.962570
 643	1.0288e+001	-1.7071	-32.049702
 644	1.0304e+001	-1.7171	-32.211915
 645	1.0320e+001	-1.7296	-32.254554
 646	1.0336e+001	-1.7429	-32.231381
 647	1.0352e+001	-1.7534	-32.250846
 648	1.0368e+001	-1.7634	-32.320367
 649	1.0384e+001	-1.7793	-32.363932
 650	1.0400e+001	-1.7896	-32.406571
 651	1.0416e+001	-1.8031	-32.505754
 652	1.0432e+001	-1.8148	-32.692994
 653	1.0448e+001	-1.8250	-32.688360
 654	1.0464e+001	-1.8368	-32.802373
 655	1.0480e+001	-1.8489	-32.832035
 656	1.0496e+001	-1.8622	-32.827400
 657	1.0512e+001	-1.8748	-32.921947
 658	1.0528e+001	-1.8867	-32.942340
 659	1.0544e+001	-1.8959	-33.044303
 660	1.0560e+001	-1.9092	-33.004445
 661	1.0576e+001	-1.9198	-33.092503
 662	1.0592e+001	-1.9370	-33.306625
 663	1.0608e+001	-1.9454	-33.285306
 664	1.0624e+001	-1.9576	-33.415077
 665	1.0640e+001	-1.9701	-33.486451
 666	1.0656e+001	-1.9807	-33.401173
 667	1.0672e+001	-1.9946	-33.466058
 668	1.0688e+001	-2.0049	-33.534651
 669	1.0704e+001	-2.0164	-33.563386
 670	1.0720e+001	-2.0270	-33.669984
 671	1.0736e+001	-2.0442	-33.721892
 672	1.0752e+001	-2.0541	-33.830344
 673	1.0768e+001	-2.0652	-33.834051
 674	1.0784e+001	-2.0753	-33.998119
 675	1.0800e+001	-2.0897	-33.964749
 676	1.0816e+001	-2.1007	-33.981434
 677	1.0832e+001	-2.1138	-34.126036
 678	1.0848e+001	-2.1258	-34.257661
 679	1.0864e+001	-2.1364	-34.272491
 680	1.0880e+001	-2.1501	-34.162186
 681	1.0896e+001	-2.1616	-34.219656
 682	1.0912e+001	-2.1748	-34.315130
 683	1.0928e+001	-2.1862	-34.406897
 684	1.0944e+001	-2.1951	-34.466221
 685	1.0960e+001	-2.2102	-34.412459
 686	1.0976e+001	-2.2198	-34.387431
 687	1.0992e+001	-2.2346	-34.499591
 688	1.1008e+001	-2.2479	-34.459732
 689	1.1024e+001	-2.2581	-34.494029
 690	1.1040e+001	-2.2678	-34.589503
 691	1.1056e+001	-2.2802	-34.639558
 692	1.1072e+001	-2.2947	-34.649754
 693	1.1088e+001	-2.3042	-34.649754
 694	1.1104e+001	-2.3158	-34.674781
 695	1.1120e+001	-2.3309	-34.766548
 696	1.1136e+001	-2.3405	-34.726690
 697	1.1152e+001	-2.3508	-34.856460
 698	1.1168e+001	-2.3661	-34.871291
 699	1.1184e+001	-2.3770	-34.915784
 700	1.1200e+001	-2.3907	-34.886122
 701	1.1216e+001	-2.4012	-34.930615
 702	1.1232e+001	-2.4153	-34.978816
 703	1.1248e+001	-2.4257	-34.993647
 704	1.1264e+001	-2.4369	-35.171618
 705	1.1280e+001	-2.4498	-35.166057
 706	1.1296e+001	-2.4622	-35.183668
 707	1.1312e+001	-2.4746	-35.264312
 708	1.1328e+001	-2.4857	-35.222600
 709	1.1344e+001	-2.4979	-35.283777
 710	1.1360e+001	-2.5099	-35.294901
 711	1.1376e+001	-2.5179	-35.359786
 712	1.1392e+001	-2.5332	-35.431160
 713	1.1408e+001	-2.5459	-35.412621
 714	1.1424e+001	-2.5603	-35.493265
 715	1.1440e+001	-2.5684	-35.443210
 716	1.1456e+001	-2.5821	-35.492338
 717	1.1472e+001	-2.5941	-35.602643
 718	1.1488e+001	-2.6033	-35.599862
 719	1.1504e+001	-2.6176	-35.600789
 720	1.1520e+001	-2.6304	-35.661967
 721	1.1536e+001	-2.6405	-35.690702
 722	1.1552e+001	-2.6530	-35.681433
 723	1.1568e+001	-2.6654	-35.685140
 724	1.1584e+001	-2.6783	-35.772272
 725	1.1600e+001	-2.6917	-35.858477
 726	1.1616e+001	-2.7022	-35.782468
 727	1.1632e+001	-2.7155	-35.795446
 728	1.1648e+001	-2.7265	-35.834377
 729	1.1664e+001	-2.7414	-35.953024
 730	1.1680e+001	-2.7487	-35.920582
 731	1.1696e+001	-2.7631	-35.954878
 732	1.1712e+001	-2.7725	-35.991956
 733	1.1728e+001	-2.7875	-35.935413
 734	1.1744e+001	-2.8000	-35.978979
 735	1.1760e+001	-2.8119	-36.154169
 736	1.1776e+001	-2.8223	-36.107823
 737	1.1792e+001	-2.8329	-36.230178
 738	1.1808e+001	-2.8455	-36.173635
 739	1.1824e+001	-2.8603	-36.218128
 740	1.1840e+001	-2.8712	-36.156950
 741	1.1856e+001	-2.8828	-36.222763
 742	1.1872e+001	-2.8932	-36.315456
 743	1.1888e+001	-2.9079	-36.169000
 744	1.1904e+001	-2.9202	-36.164366
 745	1.1920e+001	-2.9304	-36.369218
 746	1.1936e+001	-2.9433	-36.383122
 747	1.1952e+001	-2.9541	-36.440592
 748	1.1968e+001	-2.9653	-36.388684
 749	1.1984e+001	-2.9774	-36.431323
 750	1.2000e+001	-2.9899	-36.571290
 751	1.2016e+001	-3.0001	-36.512893
 752	1.2032e+001	-2.9880	-36.596317
 753	1.2048e+001	-2.9799	-36.672326
 754	1.2064e+001	-2.9675	-36.477670
 755	1.2080e+001	-2.9533	-36.457277
 756	1.2096e+001	-2.9422	-36.420200
 757	1.2112e+001	-2.9288	-36.570363
 758	1.2128e+001	-2.9161	-36.422980
 759	1.2144e+001	-2.9063	-36.467473
 760	1.2160e+001	-2.8940	-36.435958
 761	1.2176e+001	-2.8831	-36.393319
 762	1.2192e+001	-2.8686	-36.466546
 763	1.2208e+001	-2.8581	-36.304333
 764	1.2224e+001	-2.8463	-36.249644
 765	1.2240e+001	-2.8352	-36.264475
 766	1.2256e+001	-2.8212	-36.310821
 767	1.2272e+001	-2.8119	-36.302479
 768	1.2288e+001	-2.7980	-36.358095
 769	1.2304e+001	-2.7855	-36.487866
 770	1.2320e+001	-2.7720	-36.351606
 771	1.2336e+001	-2.7641	-36.193101
 772	1.2352e+001	-2.7481	-36.184758
 773	1.2368e+001	-2.7386	-36.184758
 774	1.2384e+001	-2.7266	-36.130069
 775	1.2400e+001	-2.7144	-36.153242
 776	1.2416e+001	-2.7023	-36.116165
 777	1.2432e+001	-2.6911	-36.110603
 778	1.2448e+001	-2.6773	-36.227397
 779	1.2464e+001	-2.6666	-36.180124
 780	1.2480e+001	-2.6536	-36.047572
 781	1.2496e+001	-2.6411	-36.000298
 782	1.2512e+001	-2.6279	-36.009567
 783	1.2528e+001	-2.6182	-35.862185
 784	1.2544e+001	-2.6068	-35.959513
 785	1.2560e+001	-2.5927	-35.927070
 786	1.2576e+001	-2.5804	-35.945609
 787	1.2592e+001	-2.5690	-36.026252
 788	1.2608e+001	-2.5582	-36.005860
 789	1.2624e+001	-2.5454	-35.890920
 790	1.2640e+001	-2.5334	-35.918728
 791	1.2656e+001	-2.5226	-35.839011
 792	1.2672e+001	-2.5113	-35.785249
 793	1.2688e+001	-2.5000	-35.771345
 794	1.2704e+001	-2.4869	-35.826961
 795	1.2720e+001	-2.4757	-35.821400
 796	1.2736e+001	-2.4608	-35.751880
 797	1.2752e+001	-2.4504	-35.779688
 798	1.2768e+001	-2.4389	-35.746318
 799	1.2784e+001	-2.4256	-35.668455
 800	1.2800e+001	-2.4144	-35.694410
 801	1.2816e+001	-2.4011	-35.728706
 802	1.2832e+001	-2.3897	-35.671236
 803	1.2848e+001	-2.3786	-35.694410
 804	1.2864e+001	-2.3674	-35.787103
 805	1.2880e+001	-2.3537	-35.724998
 806	1.2896e+001	-2.3422	-35.560931
 807	1.2912e+001	-2.3251	-35.663821
 808	1.2928e+001	-2.3180	-35.572981
 809	1.2944e+001	-2.3058	-35.543319
 810	1.2960e+001	-2.2928	-35.474726
 811	1.2976e+001	-2.2834	-35.460822
 812	1.2992e+001	-2.2697	-35.478434
 813	1.3008e+001	-2.2609	-35.464530
 814	1.3024e+001	-2.2478	-35.513657
 815	1.3040e+001	-2.2346	-35.370909
 816	1.3056e+001	-2.2211	-35.384813
 817	1.3072e+001	-2.2087	-35.274508
 818	1.3088e+001	-2.1976	-35.284704
 819	1.3104e+001	-2.1849	-35.305097
 820	1.3120e+001	-2.1749	-35.372763
 821	1.3136e+001	-2.1631	-35.214257
 822	1.3152e+001	-2.1512	-35.193865
 823	1.3168e+001	-2.1382	-35.178107
 824	1.3184e+001	-2.1257	-35.182742
 825	1.3200e+001	-2.1143	-35.200353
 826	1.3216e+001	-2.0979	-35.047409
 827	1.3232e+001	-2.0900	-35.107660
 828	1.3248e+001	-2.0778	-35.069655
 829	1.3264e+001	-2.0654	-35.043701
 830	1.3280e+001	-2.0523	-34.990866
 831	1.3296e+001	-2.0412	-35.044628
 832	1.3312e+001	-2.0302	-34.928761
 833	1.3328e+001	-2.0190	-34.890757
 834	1.3344e+001	-2.0069	-35.061313
 835	1.3360e+001	-1.9931	-34.797137
 836	1.3376e+001	-1.9816	-34.871291
 837	1.3392e+001	-1.9695	-34.910223
 838	1.3408e+001	-1.9565	-34.774890
 839	1.3424e+001	-1.9456	-34.773036
 840	1.3440e+001	-1.9345	-34.796210
 841	1.3456e+001	-1.9211	-34.530179
 842	1.3472e+001	-1.9079	-34.632142
 843	1.3488e+001	-1.8989	-34.721128
 844	1.3504e+001	-1.8842	-34.646046
 845	1.3520e+001	-1.8733	-34.659950
 846	1.3536e+001	-1.8607	-34.675708
 847	1.3552e+001	-1.8488	-34.616384
 848	1.3568e+001	-1.8396	-34.512568
 849	1.3584e+001	-1.8250	-34.618238
 850	1.3600e+001	-1.8133	-34.601553
 851	1.3616e+001	-1.8011	-34.351281
 852	1.3632e+001	-1.7886	-34.377235
 853	1.3648e+001	-1.7756	-34.450463
 854	1.3664e+001	-1.7653	-34.409678
 855	1.3680e+001	-1.7520	-34.353135
 856	1.3696e+001	-1.7413	-34.380016
 857	1.3712e+001	-1.7298	-34.379089
 858	1.3728e+001	-1.7197	-34.318838
 859	1.3744e+001	-1.7083	-34.434705
 860	1.3760e+001	-1.6942	-34.331815
 861	1.3776e+001	-1.6822	-34.189994
 862	1.3792e+001	-1.6670	-34.321619
 863	1.3808e+001	-1.6581	-34.133451
 864	1.3824e+001	-1.6448	-34.027781
 865	1.3840e+001	-1.6319	-34.058369
 866	1.3856e+001	-1.6197	-34.028708
 867	1.3872e+001	-1.6092	-34.016657
 868	1.3888e+001	-1.5990	-33.945283
 869	1.3904e+001	-1.5862	-33.741358
 870	1.3920e+001	-1.5724	-33.887813
 871	1.3936e+001	-1.5592	-33.804389
 872	1.3952e+001	-1.5482	-33.759896
 873	1.3968e+001	-1.5400	-33.669057
 874	1.3984e+001	-1.5244	-33.627345
 875	1.4000e+001	-1.5125	-33.681107
 876	1.4016e+001	-1.5018	-33.688522
 877	1.4032e+001	-1.4875	-33.657934
 878	1.4048e+001	-1.4768	-33.632906
 879	1.4064e+001	-1.4660	-33.708915
 880	1.4080e+001	-1.4534	-33.520747
 881	1.4096e+001	-1.4406	-33.468839
 882	1.4112e+001	-1.4307	-33.473474
 883	1.4128e+001	-1.4160	-33.352045
 884	1.4144e+001	-1.4037	-33.327945
 885	1.4160e+001	-1.3902	-33.363168
 886	1.4176e+001	-1.3799	-33.270475
 887	1.4192e+001	-1.3686	-33.387269
 888	1.4208e+001	-1.3574	-33.263986
 889	1.4224e+001	-1.3446	-33.281598
 890	1.4240e+001	-1.3333	-33.162950
 891	1.4256e+001	-1.3226	-33.121238
 892	1.4272e+001	-1.3091	-33.082307
 893	1.4288e+001	-1.2976	-32.978490
 894	1.4304e+001	-1.2837	-33.012787
 895	1.4320e+001	-1.2729	-33.035960
 896	1.4336e+001	-1.2613	-32.915459
 897	1.4352e+001	-1.2490	-32.850573
 898	1.4368e+001	-1.2354	-32.830181
 899	1.4384e+001	-1.2252	-32.805153
 900	1.4400e+001	-1.2132	-32.731926
 901	1.4416e+001	-1.2001	-32.625328
 902	1.4432e+001	-1.1897	-32.713387
 903	1.4448e+001	-1.1765	-32.523365
 904	1.4464e+001	-1.1633	-32.477945
 905	1.4480e+001	-1.1536	-32.434380
 906	1.4496e+001	-1.1384	-32.319440
 907	1.4512e+001	-1.1274	-32.379690
 908	1.4528e+001	-1.1154	-32.353736
 909	1.4544e+001	-1.1066	-32.327782
 910	1.4560e+001	-1.0929	-32.238796
 911	1.4576e+001	-1.0825	-32.070094
 912	1.4592e+001	-1.0684	-32.096975
 913	1.4608e+001	-1.0552	-31.984816
 914	1.4624e+001	-1.0487	-31.915296
 915	1.4640e+001	-1.0325	-31.925492
 916	1.4656e+001	-1.0210	-31.835580
 917	1.4672e+001	-1.0120	-31.799429
 918	1.4688e+001	-0.9976	-31.704882
 919	1.4704e+001	-0.9877	-31.647412
 920	1.4720e+001	-0.9739	-31.594576
 921	1.4736e+001	-0.9601	-31.571403
 922	1.4752e+001	-0.9480	-31.367477
 923	1.4768e+001	-0.9369	-31.435144
 924	1.4784e+001	-0.9264	-31.331327
 925	1.4800e+001	-0.9131	-31.261807
 926	1.4816e+001	-0.8997	-31.230291
 927	1.4832e+001	-0.8917	-31.244195
 928	1.4848e+001	-0.8774	-31.132963
 929	1.4864e+001	-0.8683	-31.103301
 930	1.4880e+001	-0.8552	-31.001338
 931	1.4896e+001	-0.8430	-30.758481
 932	1.4912e+001	-0.8289	-30.692669
 933	1.4928e+001	-0.8166	-30.608318
 934	1.4944e+001	-0.8068	-30.557336
 935	1.4960e+001	-0.7925	-30.461862
 936	1.4976e+001	-0.7805	-30.326530
 937	1.4992e+001	-0.7697	-30.280183
 938	1.5008e+001	-0.7552	-30.228274
 939	1.5024e+001	-0.7430	-30.213443
 940	1.5040e+001	-0.7344	-29.929801
 941	1.5056e+001	-0.7245	-29.866770
 942	1.5072e+001	-0.7081	-29.707337
 943	1.5088e+001	-0.6985	-29.503411
 944	1.5104e+001	-0.6846	-29.474676
 945	1.5120e+001	-0.6723	-29.419060
 946	1.5136e+001	-0.6602	-29.195669
 947	1.5152e+001	-0.6496	-29.117806
 948	1.5168e+001	-0.6370	-29.128930
 949	1.5184e+001	-0.6232	-28.848995
 950	1.5200e+001	-0.6126	-28.719224
 951	1.5216e+001	-0.6029	-28.557011
 952	1.5232e+001	-0.5885	-28.456902
 953	1.5248e+001	-0.5757	-28.345670
 954	1.5264e+001	-0.5656	-28.141744
 955	1.5280e+001	-0.5534	-27.943380
 956	1.5296e+001	-0.5402	-27.960065
 957	1.5312e+001	-0.5293	-27.949868
 958	1.5328e+001	-0.5185	-27.526259
 959	1.5344e+001	-0.5055	-27.409465
 960	1.5360e+001	-0.4939	-27.228713
 961	1.5376e+001	-0.4803	-26.995125
 962	1.5392e+001	-0.4684	-26.770807
 963	1.5408e+001	-0.4579	-26.626205
 964	1.5424e+001	-0.4432	-26.464919
 965	1.5440e+001	-0.4343	-26.237820
 966	1.5456e+001	-0.4189	-26.183130
 967	1.5472e+001	-0.4113	-25.794745
 968	1.5488e+001	-0.3956	-25.687220
 969	1.5504e+001	-0.3856	-25.448998
 970	1.5520e+001	-0.3733	-25.220972
 971	1.5536e+001	-0.3593	-24.954942
 972	1.5552e+001	-0.3481	-24.713939
 973	1.5568e+001	-0.3363	-24.414539
 974	1.5584e+001	-0.3252	-24.267156
 975	1.5600e+001	-0.3124	-24.005760
 976	1.5616e+001	-0.3012	-23.669283
 977	1.5632e+001	-0.2876	-23.497800
 978	1.5648e+001	-0.2775	-23.162250
 979	1.5664e+001	-0.2647	-22.898073
 980	1.5680e+001	-0.2517	-22.624627
 981	1.5696e+001	-0.2387	-22.211214
 982	1.5712e+001	-0.2274	-22.059197
 983	1.5728e+001	-0.2164	-21.648565
 984	1.5744e+001	-0.2048	-21.128554
 985	1.5760e+001	-0.1938	-21.008980
 986	1.5776e+001	-0.1826	-20.759634
 987	1.5792e+001	-0.1694	-20.496385
 988	1.5808e+001	-0.1568	-20.042187
 989	1.5824e+001	-0.1433	-19.723321
 990	1.5840e+001	-0.1331	-19.299712
 991	1.5856e+001	-0.1221	-18.902984
 992	1.5872e+001	-0.1099	-18.568360
 993	1.5888e+001	-0.0967	-18.258764
 994	1.5904e+001	-0.0847	-17.930629
 995	1.5920e+001	-0.0732	-17.279921
 996	1.5936e+001	-0.0616	-17.088972
 997	1.5952e+001	-0.0489	-16.604185
 998	1.5968e+001	-0.0370	-16.237119
 999	1.5984e+001	-0.0232	-15.859856
1000	1.6000e+001	-0.0130	-15.408439
1001	1.6016e+001	0.0008	-15.021907
1002	1.6032e+001	0.0111	-14.675234
1003	1.6048e+001	0.0237	-14.171908
1004	1.6064e+001	0.0333	-13.742737
1005	1.6080e+001	0.0462	-13.325616
1006	1.6096e+001	0.0594	-12.857514
1007	1.6112e+001	0.0678	-12.480252
1008	1.6128e+001	0.0829	-12.054789
1009	1.6144e+001	0.0938	-11.636741
1010	1.6160e+001	0.1054	-11.052772
1011	1.6176e+001	0.1185	-10.525346
1012	1.6192e+001	0.1317	-10.123983
1013	1.6208e+001	0.1421	-9.664223
1014	1.6224e+001	0.1566	-9.221149
1015	1.6240e+001	0.1656	-8.761389
1016	1.6256e+001	0.1795	-8.197812
1017	1.6272e+001	0.1920	-7.740833
1018	1.6288e+001	0.2029	-7.277366
1019	1.6304e+001	0.2139	-6.801848
1020	1.6320e+001	0.2260	-6.390289
1021	1.6336e+001	0.2390	-5.993561
1022	1.6352e+001	0.2512	-5.266844
1023	1.6368e+001	0.2618	-4.618917
1024	1.6384e+001	0.2759	-4.115591
1025	1.6400e+001	0.2859	-3.615046
1026	1.6416e+001	0.2982	-3.039420
1027	1.6432e+001	0.3121	-2.501797
1028	1.6448e+001	0.3226	-1.978079
1029	1.6464e+001	0.3384	-1.333859
1030	1.6480e+001	0.3461	-0.862976
1031	1.6496e+001	0.3599	-0.368920
1032	1.6512e+001	0.3733	0.253980
1033	1.6528e+001	0.3819	0.838876
1034	1.6544e+001	0.3951	1.457142
1035	1.6560e+001	0.4082	2.005887
1036	1.6576e+001	0.4186	2.639911
1037	1.6592e+001	0.4301	3.159921
1038	1.6608e+001	0.4429	3.676224
1039	1.6624e+001	0.4547	4.434457
1040	1.6640e+001	0.4679	4.865481
1041	1.6656e+001	0.4777	5.466135
1042	1.6672e+001	0.4897	6.079766
1043	1.6688e+001	0.5016	6.626658
1044	1.6704e+001	0.5154	7.053975
1045	1.6720e+001	0.5270	7.593451
1046	1.6736e+001	0.5396	8.258990
1047	1.6752e+001	0.5506	8.729873
1048	1.6768e+001	0.5622	9.170167
1049	1.6784e+001	0.5750	9.844976
1050	1.6800e+001	0.5843	10.245412
1051	1.6816e+001	0.6001	10.796011
1052	1.6832e+001	0.6098	11.314168
1053	1.6848e+001	0.6234	11.802662
1054	1.6864e+001	0.6355	12.296719
1055	1.6880e+001	0.6472	12.833414
1056	1.6896e+001	0.6583	13.397917
1057	1.6912e+001	0.6725	13.958713
1058	1.6928e+001	0.6812	14.196008
1059	1.6944e+001	0.6963	14.713238
1060	1.6960e+001	0.7087	15.158167
1061	1.6976e+001	0.7206	15.704131
1062	1.6992e+001	0.7312	16.099006
1063	1.7008e+001	0.7423	16.419725
1064	1.7024e+001	0.7558	16.839627
1065	1.7040e+001	0.7639	17.429157
1066	1.7056e+001	0.7794	17.882428
1067	1.7072e+001	0.7901	18.286572
1068	1.7088e+001	0.8038	18.877029
1069	1.7104e+001	0.8147	19.232046
1070	1.7120e+001	0.8286	19.540715
1071	1.7136e+001	0.8379	19.981936
1072	1.7152e+001	0.8503	20.542732
1073	1.7168e+001	0.8613	20.964487
1074	1.7184e+001	0.8733	21.382535
1075	1.7200e+001	0.8872	21.737551
1076	1.7216e+001	0.8984	22.106471
1077	1.7232e+001	0.9088	22.562523
1078	1.7248e+001	0.9223	23.050090
1079	1.7264e+001	0.9376	23.334659
1080	1.7280e+001	0.9476	23.757342
1081	1.7296e+001	0.9579	24.173536
1082	1.7312e+001	0.9725	24.560067
1083	1.7328e+001	0.9823	24.811267
1084	1.7344e+001	0.9920	25.347962
1085	1.7360e+001	1.0078	25.889292
1086	1.7376e+001	1.0197	26.353687
1087	1.7392e+001	1.0306	26.624351
1088	1.7408e+001	1.0444	27.126750
1089	1.7424e+001	1.0542	27.598560
1090	1.7440e+001	1.0690	28.011973
1091	1.7456e+001	1.0758	28.388309
1092	1.7472e+001	1.0913	28.814699
1093	1.7488e+001	1.1016	29.156738
1094	1.7504e+001	1.1160	29.574785
1095	1.7520e+001	1.1268	29.908482
1096	1.7536e+001	1.1363	30.215297
1097	1.7552e+001	1.1506	30.568460
1098	1.7568e+001	1.1634	30.952211
1099	1.7584e+001	1.1765	31.205264
1100	1.7600e+001	1.1864	31.370258
1101	1.7616e+001	1.2002	31.619604
1102	1.7632e+001	1.2121	31.792014
1103	1.7648e+001	1.2213	31.944958
1104	1.7664e+001	1.2347	32.137760
1105	1.7680e+001	1.2456	32.334271
1106	1.7696e+001	1.2595	32.402864
1107	1.7712e+001	1.2699	32.350955
1108	1.7728e+001	1.2809	32.623474
1109	1.7744e+001	1.2959	32.642013
1110	1.7760e+001	1.3068	32.731926
1111	1.7776e+001	1.3203	32.838523
1112	1.7792e+001	1.3312	32.790323
1113	1.7808e+001	1.3403	32.997029
1114	1.7824e+001	1.3539	32.946975
1115	1.7840e+001	1.3647	33.010933
1116	1.7856e+001	1.3772	33.163877
1117	1.7872e+001	1.3921	33.262132
1118	1.7888e+001	1.4037	33.353899
1119	1.7904e+001	1.4154	33.255644
1120	1.7920e+001	1.4278	33.274183
1121	1.7936e+001	1.4413	33.378926
1122	1.7952e+001	1.4520	33.375218
1123	1.7968e+001	1.4605	33.517966
1124	1.7984e+001	1.4750	33.572656
1125	1.8000e+001	1.4855	33.580071
1126	1.8016e+001	1.4994	33.633833
1127	1.8032e+001	1.5120	33.710769
1128	1.8048e+001	1.5237	33.757116
1129	1.8064e+001	1.5329	33.721892
1130	1.8080e+001	1.5467	33.860932
1131	1.8096e+001	1.5597	33.904498
1132	1.8112e+001	1.5723	33.795120
1133	1.8128e+001	1.5827	33.888740
1134	1.8144e+001	1.5968	33.936014
1135	1.8160e+001	1.6053	33.830344
1136	1.8176e+001	1.6172	33.923964
1137	1.8192e+001	1.6309	33.982361
1138	1.8208e+001	1.6405	33.986069
1139	1.8224e+001	1.6528	34.078762
1140	1.8240e+001	1.6669	34.121401
1141	1.8256e+001	1.6792	34.138086
1142	1.8272e+001	1.6883	34.113986
1143	1.8288e+001	1.7039	34.188140
1144	1.8304e+001	1.7138	34.203898
1145	1.8320e+001	1.7243	34.108424
1146	1.8336e+001	1.7394	34.380943
1147	1.8352e+001	1.7478	34.350354
1148	1.8368e+001	1.7616	34.408751
1149	1.8384e+001	1.7735	34.361477
1150	1.8400e+001	1.7862	34.334596
1151	1.8416e+001	1.7977	34.361477
1152	1.8432e+001	1.8099	34.328108
1153	1.8448e+001	1.8230	34.530179
1154	1.8464e+001	1.8365	34.431924
1155	1.8480e+001	1.8481	34.485686
1156	1.8496e+001	1.8564	34.591357
1157	1.8512e+001	1.8729	34.605261
1158	1.8528e+001	1.8818	34.657169
1159	1.8544e+001	1.8956	34.607115
1160	1.8560e+001	1.9070	34.660877
1161	1.8576e+001	1.9183	34.708151
1162	1.8592e+001	1.9306	34.726690
1163	1.8608e+001	1.9437	34.846264
1164	1.8624e+001	1.9561	34.771182
1165	1.8640e+001	1.9692	34.762840
1166	1.8656e+001	1.9810	34.846264
1167	1.8672e+001	1.9910	34.920419
1168	1.8688e+001	2.0020	34.968620
1169	1.8704e+001	2.0148	35.001062
1170	1.8720e+001	2.0274	34.928761
1171	1.8736e+001	2.0393	34.971400
1172	1.8752e+001	2.0530	35.039067
1173	1.8768e+001	2.0628	35.029797
1174	1.8784e+001	2.0769	34.983451
1175	1.8800e+001	2.0867	35.125272
1176	1.8816e+001	2.0966	35.181815
1177	1.8832e+001	2.1120	35.094683
1178	1.8848e+001	2.1244	35.090048
1179	1.8864e+001	2.1349	35.090975
1180	1.8880e+001	2.1461	35.097464
1181	1.8896e+001	2.1587	35.175326
1182	1.8912e+001	2.1712	35.089121
1183	1.8928e+001	2.1854	35.159568
1184	1.8944e+001	2.1969	35.095610
1185	1.8960e+001	2.2079	35.177180
1186	1.8976e+001	2.2186	35.254116
1187	1.8992e+001	2.2325	35.233723
1188	1.9008e+001	2.2421	35.309732
1189	1.9024e+001	2.2558	35.296755
1190	1.9040e+001	2.2680	35.150299
1191	1.9056e+001	2.2793	35.344955
1192	1.9072e+001	2.2901	35.334759
1193	1.9088e+001	2.3032	35.541465
1194	1.9104e+001	2.3140	35.369982
1195	1.9120e+001	2.3270	35.464530
1196	1.9136e+001	2.3373	35.489557
1197	1.9152e+001	2.3488	35.533123
1198	1.9168e+001	2.3615	35.466384
1199	1.9184e+001	2.3759	35.269873
1200	1.9200e+001	2.3872	35.587812
1201	1.9216e+001	2.3985	35.600789
1202	1.9232e+001	2.4111	35.699044
1203	1.9248e+001	2.4233	35.668455
1204	1.9264e+001	2.4360	35.610985
1205	1.9280e+001	2.4451	35.713875
1206	1.9296e+001	2.4583	35.810276
1207	1.9312e+001	2.4710	35.709241
1208	1.9328e+001	2.4815	35.804715
1209	1.9344e+001	2.4949	35.805642
1210	1.9360e+001	2.5068	35.776907
1211	1.9376e+001	2.5173	35.779688
1212	1.9392e+001	2.5314	35.813057
1213	1.9408e+001	2.5452	35.719437
1214	1.9424e+001	2.5566	35.809350
1215	1.9440e+001	2.5684	35.883504
1216	1.9456e+001	2.5770	35.895554
1217	1.9472e+001	2.5907	35.943755
1218	1.9488e+001	2.6035	35.900189
1219	1.9504e+001	2.6169	35.940047
1220	1.9520e+001	2.6287	35.951171
1221	1.9536e+001	2.6392	36.006787
1222	1.9552e+001	2.6510	35.964148
1223	1.9568e+001	2.6637	35.937267
1224	1.9584e+001	2.6760	35.986394
1225	1.9600e+001	2.6878	36.072599
1226	1.9616e+001	2.7010	36.044791
1227	1.9632e+001	2.7111	36.080941
1228	1.9648e+001	2.7217	36.086503
1229	1.9664e+001	2.7363	36.089284
1230	1.9680e+001	2.7465	36.121727
1231	1.9696e+001	2.7589	36.080941
1232	1.9712e+001	2.7720	36.072599
1233	1.9728e+001	2.7833	36.176416
1234	1.9744e+001	2.7956	36.141192
1235	1.9760e+001	2.8075	36.183831
1236	1.9776e+001	2.8190	36.228324
1237	1.9792e+001	2.8306	36.125434
1238	1.9808e+001	2.8434	36.256132
1239	1.9824e+001	2.8529	36.358095
1240	1.9840e+001	2.8656	36.278379
1241	1.9856e+001	2.8778	36.335849
1242	1.9872e+001	2.8926	36.324725
1243	1.9888e+001	2.9030	36.380341
1244	1.9904e+001	2.9163	36.511966
1245	1.9920e+001	2.9279	36.423907
1246	1.9936e+001	2.9414	36.477670
1247	1.9952e+001	2.9497	36.508258
1248	1.9968e+001	2.9639	36.504551
1249	1.9984e+001	2.9762	36.451715
1250	2.0000e+001	2.9873	36.529578
1251	2.0016e+001	2.9998	36.515674
1252	2.0032e+001	2.9870	36.458204
1253	2.0048e+001	2.9737	36.494354
1254	2.0064e+001	2.9633	36.418346
1255	2.0080e+001	2.9499	36.578706
1256	2.0096e+001	2.9385	36.503624
1257	2.0112e+001	2.9280	36.392392
1258	2.0128e+001	2.9143	36.441519
1259	2.0144e+001	2.9024	36.336776
1260	2.0160e+001	2.8898	36.421127
1261	2.0176e+001	2.8786	36.350680
1262	2.0192e+001	2.8667	36.321945
1263	2.0208e+001	2.8553	36.454496
1264	2.0224e+001	2.8438	36.233886
1265	2.0240e+001	2.8323	36.318237
1266	2.0256e+001	2.8213	36.372926
1267	2.0272e+001	2.8075	36.334922
1268	2.0288e+001	2.7972	36.278379
1269	2.0304e+001	2.7819	36.270036
1270	2.0320e+001	2.7717	36.092065
1271	2.0336e+001	2.7586	36.199589
1272	2.0352e+001	2.7491	36.219055
1273	2.0368e+001	2.7357	36.225543
1274	2.0384e+001	2.7243	36.254278
1275	2.0400e+001	2.7084	36.194028
1276	2.0416e+001	2.6981	36.175489
1277	2.0432e+001	2.6856	36.092065
1278	2.0448e+001	2.6759	36.187539
1279	2.0464e+001	2.6630	36.143973
1280	2.0480e+001	2.6514	36.108750
1281	2.0496e+001	2.6411	36.083722
1282	2.0512e+001	2.6297	35.991029
1283	2.0528e+001	2.6146	36.054987
1284	2.0544e+001	2.6038	36.020691
1285	2.0560e+001	2.5910	36.040156
1286	2.0576e+001	2.5790	36.047572
1287	2.0592e+001	2.5661	35.894628
1288	2.0608e+001	2.5549	36.068891
1289	2.0624e+001	2.5450	35.930778
1290	2.0640e+001	2.5314	35.949317
1291	2.0656e+001	2.5195	35.969709
1292	2.0672e+001	2.5074	35.947463
1293	2.0688e+001	2.4940	36.020691
1294	2.0704e+001	2.4844	35.898335
1295	2.0720e+001	2.4715	35.827888
1296	2.0736e+001	2.4608	35.813057
1297	2.0752e+001	2.4451	35.889993
1298	2.0768e+001	2.4372	35.954878
1299	2.0784e+001	2.4223	35.877016
1300	2.0800e+001	2.4119	35.782468
1301	2.0816e+001	2.4007	35.826961
1302	2.0832e+001	2.3869	35.769491
1303	2.0848e+001	2.3760	35.825107
1304	2.0864e+001	2.3635	35.737976
1305	2.0880e+001	2.3499	35.661040
1306	2.0896e+001	2.3392	35.753733
1307	2.0912e+001	2.3270	35.560004
1308	2.0928e+001	2.3162	35.597081
1309	2.0944e+001	2.3019	35.666602
1310	2.0960e+001	2.2921	35.631378
1311	2.0976e+001	2.2794	35.675871
1312	2.0992e+001	2.2691	35.620255
1313	2.1008e+001	2.2547	35.638794
1314	2.1024e+001	2.2422	35.394083
1315	2.1040e+001	2.2310	35.487703
1316	2.1056e+001	2.2218	35.597081
1317	2.1072e+001	2.2082	35.527561
1318	2.1088e+001	2.1977	35.542392
1319	2.1104e+001	2.1843	35.494192
1320	2.1120e+001	2.1706	35.401498
1321	2.1136e+001	2.1581	35.406133
1322	2.1152e+001	2.1473	35.457114
1323	2.1168e+001	2.1337	35.446918
1324	2.1184e+001	2.1225	35.239285
1325	2.1200e+001	2.1121	35.433941
1326	2.1216e+001	2.0966	35.441356
1327	2.1232e+001	2.0883	35.359786
1328	2.1248e+001	2.0760	35.384813
1329	2.1264e+001	2.0623	35.345882
1330	2.1280e+001	2.0521	35.407987
1331	2.1296e+001	2.0377	35.345882
1332	2.1312e+001	2.0263	35.231869
1333	2.1328e+001	2.0152	35.274508
1334	2.1344e+001	2.0023	35.264312
1335	2.1360e+001	1.9917	35.326416
1336	2.1376e+001	1.9797	35.242992
1337	2.1392e+001	1.9700	35.165130
1338	2.1408e+001	1.9550	35.230942
1339	2.1424e+001	1.9431	35.221673
1340	2.1440e+001	1.9320	35.132687
1341	2.1456e+001	1.9167	35.096537
1342	2.1472e+001	1.9056	35.174399
1343	2.1488e+001	1.8941	35.155860
1344	2.1504e+001	1.8797	35.176253
1345	2.1520e+001	1.8693	35.117856
1346	2.1536e+001	1.8581	35.094683
1347	2.1552e+001	1.8470	35.051117
1348	2.1568e+001	1.8366	35.103952
1349	2.1584e+001	1.8237	35.071509
1350	2.1600e+001	1.8107	34.976962
1351	2.1616e+001	1.7986	34.863876
1352	2.1632e+001	1.7861	34.918565
1353	2.1648e+001	1.7735	34.947300
1354	2.1664e+001	1.7651	34.852753
1355	2.1680e+001	1.7490	34.999208
1356	2.1696e+001	1.7395	34.931542
1357	2.1712e+001	1.7275	34.806406
1358	2.1728e+001	1.7149	34.848118
1359	2.1744e+001	1.7026	34.714639
1360	2.1760e+001	1.6913	34.786013
1361	2.1776e+001	1.6787	34.836068
1362	2.1792e+001	1.6686	34.681270
1363	2.1808e+001	1.6528	34.699808
1364	2.1824e+001	1.6441	34.703516
1365	2.1840e+001	1.6294	34.703516
1366	2.1856e+001	1.6182	34.659950
1367	2.1872e+001	1.6048	34.697955
1368	2.1888e+001	1.5926	34.714639
1369	2.1904e+001	1.5823	34.474563
1370	2.1920e+001	1.5687	34.645119
1371	2.1936e+001	1.5566	34.667366
1372	2.1952e+001	1.5482	34.674781
1373	2.1968e+001	1.5344	34.639558
1374	2.1984e+001	1.5224	34.631215
1375	2.2000e+001	1.5117	34.580234
1376	2.2016e+001	1.4980	34.504225
1377	2.2032e+001	1.4856	34.468075
1378	2.2048e+001	1.4723	34.509787
1379	2.2064e+001	1.4635	34.437486
1380	2.2080e+001	1.4500	34.506079
1381	2.2096e+001	1.4392	34.532960
1382	2.2112e+001	1.4262	34.369820
1383	2.2128e+001	1.4149	34.420801
1384	2.2144e+001	1.4044	34.366112
1385	2.2160e+001	1.3934	34.299373
1386	2.2176e+001	1.3782	34.216875
1387	2.2192e+001	1.3692	34.119547
1388	2.2208e+001	1.3541	34.343865
1389	2.2224e+001	1.3422	34.291030
1390	2.2240e+001	1.3316	34.280834
1391	2.2256e+001	1.3196	34.292884
1392	2.2272e+001	1.3062	34.221510
1393	2.2288e+001	1.2971	34.368893
1394	2.2304e+001	1.2824	34.185360
1395	2.2320e+001	1.2735	34.038904
1396	2.2336e+001	1.2608	34.082470
1397	2.2352e+001	1.2496	34.133451
1398	2.2368e+001	1.2355	34.121401
1399	2.2384e+001	1.2228	34.073200
1400	2.2400e+001	1.2146	34.047246
1401	2.2416e+001	1.2000	34.107497
1402	2.2432e+001	1.1857	33.946210
1403	2.2448e+001	1.1755	33.960114
1404	2.2464e+001	1.1610	33.758970
1405	2.2480e+001	1.1503	33.860005
1406	2.2496e+001	1.1389	33.910060
1407	2.2512e+001	1.1279	33.850736
1408	2.2528e+001	1.1150	33.824782
1409	2.2544e+001	1.1028	33.765458
1410	2.2560e+001	1.0938	33.872056
1411	2.2576e+001	1.0788	33.799755
1412	2.2592e+001	1.0659	33.788631
1413	2.2608e+001	1.0534	33.890594
1414	2.2624e+001	1.0403	33.685742
1415	2.2640e+001	1.0316	33.711696
1416	2.2656e+001	1.0196	33.695011
1417	2.2672e+001	1.0057	33.638468
1418	2.2688e+001	0.9959	33.644957
1419	2.2704e+001	0.9817	33.678326
1420	2.2720e+001	0.9719	33.717257
1421	2.2736e+001	0.9576	33.550409
1422	2.2752e+001	0.9472	33.636614
1423	2.2768e+001	0.9316	33.772874
1424	2.2784e+001	0.9209	33.558752
1425	2.2800e+001	0.9101	33.506843
1426	2.2816e+001	0.9003	33.487378
1427	2.2832e+001	0.8876	33.379853
1428	2.2848e+001	0.8744	33.381707
1429	2.2864e+001	0.8616	33.284379
1430	2.2880e+001	0.8528	33.446592
1431	2.2896e+001	0.8382	33.458643
1432	2.2912e+001	0.8269	33.338141
1433	2.2928e+001	0.8144	33.312187
1434	2.2944e+001	0.8024	33.149973
1435	2.2960e+001	0.7887	33.169439
1436	2.2976e+001	0.7781	33.187978
1437	2.2992e+001	0.7666	33.130508
1438	2.3008e+001	0.7539	33.186124
1439	2.3024e+001	0.7462	33.060988
1440	2.3040e+001	0.7302	33.027618
1441	2.3056e+001	0.7178	33.039668
1442	2.3072e+001	0.7082	33.007225
1443	2.3088e+001	0.6950	33.034106
1444	2.3104e+001	0.6836	32.929363
1445	2.3120e+001	0.6709	32.857989
1446	2.3136e+001	0.6582	32.856135
1447	2.3152e+001	0.6440	32.775492
1448	2.3168e+001	0.6336	32.791249
1449	2.3184e+001	0.6229	32.883943
1450	2.3200e+001	0.6107	32.854281
1451	2.3216e+001	0.5993	32.756026
1452	2.3232e+001	0.5838	32.795884
1453	2.3248e+001	0.5734	32.680944
1454	2.3264e+001	0.5609	32.577128
1455	2.3280e+001	0.5508	32.640159
1456	2.3296e+001	0.5391	32.580835
1457	2.3312e+001	0.5265	32.417695
1458	2.3328e+001	0.5151	32.513169
1459	2.3344e+001	0.5010	32.312951
1460	2.3360e+001	0.4884	32.424183
1461	2.3376e+001	0.4801	32.415841
1462	2.3392e+001	0.4686	32.355590
1463	2.3408e+001	0.4556	32.389887
1464	2.3424e+001	0.4415	32.273093
1465	2.3440e+001	0.4303	32.172057
1466	2.3456e+001	0.4169	32.257335
1467	2.3472e+001	0.4084	32.089560
1468	2.3488e+001	0.3933	32.067313
1469	2.3504e+001	0.3825	32.050628
1470	2.3520e+001	0.3720	31.937542
1471	2.3536e+001	0.3568	31.819822
1472	2.3552e+001	0.3464	31.716932
1473	2.3568e+001	0.3352	31.735471
1474	2.3584e+001	0.3243	31.648339
1475	2.3600e+001	0.3103	31.630727
1476	2.3616e+001	0.3006	31.443486
1477	2.3632e+001	0.2836	31.335035
1478	2.3648e+001	0.2732	31.252538
1479	2.3664e+001	0.2645	31.021731
1480	2.3680e+001	0.2505	31.007827
1481	2.3696e+001	0.2364	30.935526
1482	2.3712e+001	0.2264	30.770531
1483	2.3728e+001	0.2122	30.545286
1484	2.3744e+001	0.2020	30.174512
1485	2.3760e+001	0.1908	30.153193
1486	2.3776e+001	0.1769	29.875112
1487	2.3792e+001	0.1672	29.589616
1488	2.3808e+001	0.1534	29.442234
1489	2.3824e+001	0.1411	29.035309
1490	2.3840e+001	0.1296	28.710882
1491	2.3856e+001	0.1192	28.302104
1492	2.3872e+001	0.1054	27.813609
1493	2.3888e+001	0.0938	27.360338
1494	2.3904e+001	0.0824	26.807885
1495	2.3920e+001	0.0687	26.131222
1496	2.3936e+001	0.0584	25.513883
1497	2.3952e+001	0.0433	24.872445
1498	2.3968e+001	0.0340	24.108650
1499	2.3984e+001	0.0237	23.412522
1500	2.4000e+001	0.0094	22.667266
1501	2.4016e+001	0.0000	21.858979
1502	2.4032e+001	-0.0144	20.921848
1503	2.4048e+001	-0.0259	20.135807
1504	2.4064e+001	-0.0387	19.034608
1505	2.4080e+001	-0.0491	18.170705
1506	2.4096e+001	-0.0605	17.323487
1507	2.4112e+001	-0.0741	16.353913
1508	2.4128e+001	-0.0855	15.383412
1509	2.4144e+001	-0.0992	14.326706
1510	2.4160e+001	-0.1105	13.541592
1511	2.4176e+001	-0.1224	12.717547
1512	2.4192e+001	-0.1321	11.642303
1513	2.4208e+001	-0.1439	10.941540
1514	2.4224e+001	-0.1589	9.971039
1515	2.4240e+001	-0.1682	9.041323
1516	2.4256e+001	-0.1801	8.194105
1517	2.4272e+001	-0.1924	7.368206
1518	2.4288e+001	-0.2049	6.511718
1519	2.4304e+001	-0.2170	5.676549
1520	2.4320e+001	-0.2284	4.844162
1521	2.4336e+001	-0.2412	4.265754
1522	2.4352e+001	-0.2529	3.411120
1523	2.4368e+001	-0.2660	2.654742
1524	2.4384e+001	-0.2772	1.889093
1525	2.4400e+001	-0.2900	1.132714
1526	2.4416e+001	-0.2996	0.507033
1527	2.4432e+001	-0.3136	-0.183533
1528	2.4448e+001	-0.3246	-0.987186
1529	2.4464e+001	-0.3353	-1.826062
1530	2.4480e+001	-0.3471	-2.198690
1531	2.4496e+001	-0.3619	-2.791928
1532	2.4512e+001	-0.3712	-3.363847
1533	2.4528e+001	-0.3849	-3.942254
1534	2.4544e+001	-0.3957	-4.622624
1535	2.4560e+001	-0.4081	-5.100923
1536	2.4576e+001	-0.4202	-5.673769
1537	2.4592e+001	-0.4333	-6.389362
1538	2.4608e+001	-0.4446	-7.024313
1539	2.4624e+001	-0.4585	-7.421968
1540	2.4640e+001	-0.4700	-7.736199
1541	2.4656e+001	-0.4823	-8.292360
1542	2.4672e+001	-0.4915	-8.758608
1543	2.4688e+001	-0.5051	-9.204464
1544	2.4704e+001	-0.5167	-9.720766
1545	2.4720e+001	-0.5294	-10.137887
1546	2.4736e+001	-0.5424	-10.569839
1547	2.4752e+001	-0.5508	-11.128781
1548	2.4768e+001	-0.5628	-11.473600
1549	2.4784e+001	-0.5760	-12.052008
1550	2.4800e+001	-0.5900	-12.459859
1551	2.4816e+001	-0.6002	-12.807460
1552	2.4832e+001	-0.6161	-13.181014
1553	2.4848e+001	-0.6243	-13.578670
1554	2.4864e+001	-0.6379	-14.013402
1555	2.4880e+001	-0.6501	-14.314656
1556	2.4896e+001	-0.6626	-14.786466
1557	2.4912e+001	-0.6730	-15.113674
1558	2.4928e+001	-0.6866	-15.461274
1559	2.4944e+001	-0.6991	-15.866345
1560	2.4960e+001	-0.7058	-16.246388
1561	2.4976e+001	-0.7189	-16.571742
1562	2.4992e+001	-0.7359	-16.992571
1563	2.5008e+001	-0.7468	-17.227085
1564	2.5024e+001	-0.7592	-17.521851
1565	2.5040e+001	-0.7702	-17.821251
1566	2.5056e+001	-0.7810	-18.269887
1567	2.5072e+001	-0.7944	-18.653638
1568	2.5088e+001	-0.8049	-18.878883
1569	2.5104e+001	-0.8185	-19.118960
1570	2.5120e+001	-0.8298	-19.581500
1571	2.5136e+001	-0.8408	-19.943005
1572	2.5152e+001	-0.8556	-20.158980
1573	2.5168e+001	-0.8656	-20.355491
1574	2.5184e+001	-0.8765	-20.787442
1575	2.5200e+001	-0.8914	-20.976537
1576	2.5216e+001	-0.9023	-21.246275
1577	2.5232e+001	-0.9127	-21.452055
1578	2.5248e+001	-0.9242	-21.828390
1579	2.5264e+001	-0.9344	-22.234388
1580	2.5280e+001	-0.9488	-22.451291
1581	2.5296e+001	-0.9622	-22.638531
1582	2.5312e+001	-0.9712	-23.010232
1583	2.5328e+001	-0.9868	-22.979643
1584	2.5344e+001	-0.9980	-23.478334
1585	2.5360e+001	-1.0102	-23.617375
1586	2.5376e+001	-1.0216	-23.872282
1587	2.5392e+001	-1.0355	-24.132750
1588	2.5408e+001	-1.0466	-24.309795
1589	2.5424e+001	-1.0582	-24.525771
1590	2.5440e+001	-1.0683	-24.786240
1591	2.5456e+001	-1.0814	-24.871518
1592	2.5472e+001	-1.0949	-25.489783
1593	2.5488e+001	-1.1035	-25.340547
1594	2.5504e+001	-1.1176	-25.625116
1595	2.5520e+001	-1.1308	-25.869826
1596	2.5536e+001	-1.1404	-26.033894
1597	2.5552e+001	-1.1539	-26.227623
1598	2.5568e+001	-1.1643	-26.348125
1599	2.5584e+001	-1.1782	-26.563174
1600	2.5600e+001	-1.1885	-26.801396
1601	2.5616e+001	-1.2003	-26.773588
1602	2.5632e+001	-1.2138	-27.165681
1603	2.5648e+001	-1.2230	-27.212028
1604	2.5664e+001	-1.2373	-27.541090
1605	2.5680e+001	-1.2496	-27.541090
1606	2.5696e+001	-1.2605	-27.837709
1607	2.5712e+001	-1.2756	-28.018462
1608	2.5728e+001	-1.2844	-28.120424
1609	2.5744e+001	-1.2993	-28.356793
1610	2.5760e+001	-1.3092	-28.569061
1611	2.5776e+001	-1.3213	-28.363281
1612	2.5792e+001	-1.3324	-28.831384
1613	2.5808e+001	-1.3462	-28.844361
1614	2.5824e+001	-1.3558	-28.981547
1615	2.5840e+001	-1.3677	-29.109464
1616	2.5856e+001	-1.3808	-29.275385
1617	2.5872e+001	-1.3936	-29.303193
1618	2.5888e+001	-1.4058	-29.496923
1619	2.5904e+001	-1.4188	-29.676748
1620	2.5920e+001	-1.4284	-29.756465
1621	2.5936e+001	-1.4424	-29.844523
1622	2.5952e+001	-1.4542	-30.010445
1623	2.5968e+001	-1.4645	-30.069769
1624	2.5984e+001	-1.4767	-30.179147
1625	2.6000e+001	-1.4938	-30.331164
1626	2.6016e+001	-1.5023	-30.378438
1627	2.6032e+001	-1.5157	-30.502647
1628	2.6048e+001	-1.5256	-30.561971
1629	2.6064e+001	-1.5400	-30.777947
1630	2.6080e+001	-1.5503	-30.817805
1631	2.6096e+001	-1.5606	-30.925329
1632	2.6112e+001	-1.5736	-31.055100
1633	2.6128e+001	-1.5845	-31.115351
1634	2.6144e+001	-1.5977	-31.201556
1635	2.6160e+001	-1.6089	-31.289615
1636	2.6176e+001	-1.6235	-31.355427
1637	2.6192e+001	-1.6319	-31.466659
1638	2.6208e+001	-1.6464	-31.493541
1639	2.6224e+001	-1.6557	-31.649266
1640	2.6240e+001	-1.6710	-31.700247
1641	2.6256e+001	-1.6813	-31.840214
1642	2.6272e+001	-1.6912	-31.943104
1643	2.6288e+001	-1.7051	-31.984816
1644	2.6304e+001	-1.7169	-32.106245
1645	2.6320e+001	-1.7261	-32.127564
1646	2.6336e+001	-1.7400	-32.102537
1647	2.6352e+001	-1.7535	-32.190596
1648	2.6368e+001	-1.7631	-32.352809
1649	2.6384e+001	-1.7772	-32.479799
1650	2.6400e+001	-1.7899	-32.478872
1651	2.6416e+001	-1.8021	-32.646648
1652	2.6432e+001	-1.8123	-32.718022
1653	2.6448e+001	-1.8266	-32.665186
1654	2.6464e+001	-1.8372	-33.039668
1655	2.6480e+001	-1.8491	-32.907116
1656	2.6496e+001	-1.8596	-32.946975
1657	2.6512e+001	-1.8732	-33.037814
1658	2.6528e+001	-1.8845	-33.067476
1659	2.6544e+001	-1.8983	-33.119384
1660	2.6560e+001	-1.9112	-33.238959
1661	2.6576e+001	-1.9241	-33.262132
1662	2.6592e+001	-1.9337	-33.286233
1663	2.6608e+001	-1.9445	-33.213005
1664	2.6624e+001	-1.9571	-33.436396
1665	2.6640e+001	-1.9696	-33.432688
1666	2.6656e+001	-1.9825	-33.383561
1667	2.6672e+001	-1.9931	-33.493866
1668	2.6688e+001	-2.0045	-33.536505
1669	2.6704e+001	-2.0200	-33.646810
1670	2.6720e+001	-2.0303	-33.653299
1671	2.6736e+001	-2.0412	-33.760823
1672	2.6752e+001	-2.0534	-33.809024
1673	2.6768e+001	-2.0630	-33.771020
1674	2.6784e+001	-2.0801	-33.880398
1675	2.6800e+001	-2.0890	-33.885960
1676	2.6816e+001	-2.1015	-33.856298
1677	2.6832e+001	-2.1111	-33.964749
1678	2.6848e+001	-2.1250	-34.137159
1679	2.6864e+001	-2.1375	-34.025000
1680	2.6880e+001	-2.1514	-34.154771
1681	2.6896e+001	-2.1610	-34.206679
1682	2.6912e+001	-2.1736	-34.248391
1683	2.6928e+001	-2.1866	-34.310496
1684	2.6944e+001	-2.1969	-34.380943
1685	2.6960e+001	-2.2112	-34.327181
1686	2.6976e+001	-2.2228	-34.361477
1687	2.6992e+001	-2.2308	-34.458805
1688	2.7008e+001	-2.2453	-34.472709
1689	2.7024e+001	-2.2595	-34.610823
1690	2.7040e+001	-2.2700	-34.792502
1691	2.7056e+001	-2.2824	-34.777671
1692	2.7072e+001	-2.2929	-34.754498
1693	2.7088e+001	-2.3061	-34.747082
1694	2.7104e+001	-2.3186	-34.829579
1695	2.7120e+001	-2.3306	-34.808260
1696	2.7136e+001	-2.3416	-34.836068
1697	2.7152e+001	-2.3550	-34.860168
1698	2.7168e+001	-2.3655	-34.904661
1699	2.7184e+001	-2.3763	-34.979743
1700	2.7200e+001	-2.3885	-35.068729
1701	2.7216e+001	-2.4031	-35.074290
1702	2.7232e+001	-2.4146	-35.094683
1703	2.7248e+001	-2.4250	-35.141029
1704	2.7264e+001	-2.4345	-35.215184
1705	2.7280e+001	-2.4506	-35.125272
1706	2.7296e+001	-2.4625	-35.194792
1707	2.7312e+001	-2.4748	-35.239285
1708	2.7328e+001	-2.4843	-35.126199
1709	2.7344e+001	-2.4992	-35.255969
1710	2.7360e+001	-2.5108	-35.274508
1711	2.7376e+001	-2.5229	-35.407987
1712	2.7392e+001	-2.5342	-35.429306
1713	2.7408e+001	-2.5446	-35.481215
1714	2.7424e+001	-2.5577	-35.515511
1715	2.7440e+001	-2.5695	-35.493265
1716	2.7456e+001	-2.5809	-35.441356
1717	2.7472e+001	-2.5940	-35.460822
1718	2.7488e+001	-2.6067	-35.484922
1719	2.7504e+001	-2.6176	-35.619328
1720	2.7520e+001	-2.6302	-35.692556
1721	2.7536e+001	-2.6421	-35.723145
1722	2.7552e+001	-2.6550	-35.721291
1723	2.7568e+001	-2.6687	-35.707387
1724	2.7584e+001	-2.6777	-35.774126
1725	2.7600e+001	-2.6884	-35.811203
1726	2.7616e+001	-2.7016	-35.801934
1727	2.7632e+001	-2.7158	-35.889993
1728	2.7648e+001	-2.7269	-35.819546
1729	2.7664e+001	-2.7377	-35.942828
1730	2.7680e+001	-2.7492	-36.029960
1731	2.7696e+001	-2.7625	-36.022545
1732	2.7712e+001	-2.7724	-36.100407
1733	2.7728e+001	-2.7843	-36.021618
1734	2.7744e+001	-2.7974	-36.088357
1735	2.7760e+001	-2.8122	-36.067964
1736	2.7776e+001	-2.8209	-36.141192
1737	2.7792e+001	-2.8315	-36.162512
1738	2.7808e+001	-2.8448	-36.029960
1739	2.7824e+001	-2.8574	-36.249644
1740	2.7840e+001	-2.8699	-36.255205
1741	2.7856e+001	-2.8798	-36.315456
1742	2.7872e+001	-2.8929	-36.218128
1743	2.7888e+001	-2.9060	-36.329360
1744	2.7904e+001	-2.9166	-36.284867
1745	2.7920e+001	-2.9299	-36.280232
1746	2.7936e+001	-2.9408	-36.397026
1747	2.7952e+001	-2.9548	-36.397026
1748	2.7968e+001	-2.9660	-36.382195
1749	2.7984e+001	-2.9776	-36.422980
1750	2.8000e+001	-2.9890	-36.416492
1751	2.8016e+001	-3.0013	-36.422054
1752	2.8032e+001	-2.9897	-36.578706
1753	2.8048e+001	-2.9796	-36.473962
1754	2.8064e+001	-2.9665	-36.550897
1755	2.8080e+001	-2.9556	-36.435031
1756	2.8096e+001	-2.9421	-36.422054
1757	2.8112e+001	-2.9302	-36.473035
1758	2.8128e+001	-2.9182	-36.359949
1759	2.8144e+001	-2.9050	-36.435958
1760	2.8160e+001	-2.8923	-36.429469
1761	2.8176e+001	-2.8825	-36.330287
1762	2.8192e+001	-2.8709	-36.396099
1763	2.8208e+001	-2.8583	-36.294137
1764	2.8224e+001	-2.8473	-36.279306
1765	2.8240e+001	-2.8328	-36.225543
1766	2.8256e+001	-2.8214	-36.207932
1767	2.8272e+001	-2.8091	-36.308041
1768	2.8288e+001	-2.7943	-36.235740
1769	2.8304e+001	-2.7847	-36.403515
1770	2.8320e+001	-2.7736	-36.261694
1771	2.8336e+001	-2.7625	-36.213493
1772	2.8352e+001	-2.7516	-36.230178
1773	2.8368e+001	-2.7378	-36.219055
1774	2.8384e+001	-2.7258	-36.219055
1775	2.8400e+001	-2.7131	-36.215347
1776	2.8416e+001	-2.6991	-36.124507
1777	2.8432e+001	-2.6900	-36.109676
1778	2.8448e+001	-2.6785	-36.243155
1779	2.8464e+001	-2.6685	-36.214420
1780	2.8480e+001	-2.6548	-36.157877
1781	2.8496e+001	-2.6410	-36.169000
1782	2.8512e+001	-2.6305	-36.114311
1783	2.8528e+001	-2.6174	-35.975271
1784	2.8544e+001	-2.6048	-36.070745
1785	2.8560e+001	-2.5953	-35.990102
1786	2.8576e+001	-2.5828	-35.892774
1787	2.8592e+001	-2.5706	-36.007714
1788	2.8608e+001	-2.5573	-36.012348
1789	2.8624e+001	-2.5463	-35.962294
1790	2.8640e+001	-2.5312	-35.884431
1791	2.8656e+001	-2.5215	-35.876089
1792	2.8672e+001	-2.5076	-35.867746
1793	2.8688e+001	-2.4965	-35.756514
1794	2.8704e+001	-2.4883	-35.804715
1795	2.8720e+001	-2.4736	-35.759295
1796	2.8736e+001	-2.4634	-35.887212
1797	2.8752e+001	-2.4506	-35.801934
1798	2.8768e+001	-2.4353	-35.677725
1799	2.8784e+001	-2.4262	-35.718510
1800	2.8800e+001	-2.4110	-35.756514
1801	2.8816e+001	-2.4004	-35.630451
1802	2.8832e+001	-2.3903	-35.640647
1803	2.8848e+001	-2.3781	-35.628597
1804	2.8864e+001	-2.3673	-35.603570
1805	2.8880e+001	-2.3550	-35.594301
1806	2.8896e+001	-2.3403	-35.610985
1807	2.8912e+001	-2.3289	-35.550735
1808	2.8928e+001	-2.3163	-35.517365
1809	2.8944e+001	-2.3045	-35.532196
1810	2.8960e+001	-2.2951	-35.492338
1811	2.8976e+001	-2.2801	-35.507169
1812	2.8992e+001	-2.2693	-35.446918
1813	2.9008e+001	-2.2576	-35.318074
1814	2.9024e+001	-2.2470	-35.353298
1815	2.9040e+001	-2.2323	-35.409841
1816	2.9056e+001	-2.2233	-35.372763
1817	2.9072e+001	-2.2096	-35.436722
1818	2.9088e+001	-2.1971	-35.382959
1819	2.9104e+001	-2.1878	-35.329197
1820	2.9120e+001	-2.1716	-35.282851
1821	2.9136e+001	-2.1617	-35.128979
1822	2.9152e+001	-2.1509	-35.191084
1823	2.9168e+001	-2.1375	-35.237431
1824	2.9184e+001	-2.1255	-35.177180
1825	2.9200e+001	-2.1146	-35.202207
1826	2.9216e+001	-2.1024	-35.123418
1827	2.9232e+001	-2.0886	-35.158641
1828	2.9248e+001	-2.0776	-35.109514
1829	2.9264e+001	-2.0657	-35.135468
1830	2.9280e+001	-2.0544	-35.102098
1831	2.9296e+001	-2.0390	-35.099317
1832	2.9312e+001	-2.0316	-35.128052
1833	2.9328e+001	-2.0183	-34.988085
1834	2.9344e+001	-2.0067	-34.900953
1835	2.9360e+001	-1.9923	-34.806406
1836	2.9376e+001	-1.9832	-34.835141
1837	2.9392e+001	-1.9690	-34.928761
1838	2.9408e+001	-1.9561	-34.803625
1839	2.9424e+001	-1.9450	-34.810114
1840	2.9440e+001	-1.9335	-34.773963
1841	2.9456e+001	-1.9228	-34.815675
1842	2.9472e+001	-1.9117	-34.810114
1843	2.9488e+001	-1.8975	-34.684977
1844	2.9504e+001	-1.8867	-34.584869
1845	2.9520e+001	-1.8726	-34.638631
1846	2.9536e+001	-1.8610	-34.531106
1847	2.9552e+001	-1.8509	-34.545937
1848	2.9568e+001	-1.8347	-34.452317
1849	2.9584e+001	-1.8268	-34.533887
1850	2.9600e+001	-1.8118	-34.580234
1851	2.9616e+001	-1.7998	-34.420801
1852	2.9632e+001	-1.7914	-34.456025
1853	2.9648e+001	-1.7758	-34.440267
1854	2.9664e+001	-1.7656	-34.430997
1855	2.9680e+001	-1.7543	-34.310496
1856	2.9696e+001	-1.7426	-34.315130
1857	2.9712e+001	-1.7303	-34.317911
1858	2.9728e+001	-1.7163	-34.241903
1859	2.9744e+001	-1.7075	-34.250245
1860	2.9760e+001	-1.6952	-34.291030
1861	2.9776e+001	-1.6803	-34.220583
1862	2.9792e+001	-1.6685	-34.185360
1863	2.9808e+001	-1.6580	-34.120474
1864	2.9824e+001	-1.6467	-34.117693
1865	2.9840e+001	-1.6342	-34.079689
1866	2.9856e+001	-1.6197	-34.046319
1867	2.9872e+001	-1.6106	-34.001826
1868	2.9888e+001	-1.5971	-33.931379
1869	2.9904e+001	-1.5865	-33.971238
1870	2.9920e+001	-1.5746	-33.923037
1871	2.9936e+001	-1.5623	-33.855371
1872	2.9952e+001	-1.5488	-33.867421
1873	2.9968e+001	-1.5369	-33.735796
1874	2.9984e+001	-1.5250	-33.777508
1875	3.0000e+001	-1.5138	-33.707988
1876	3.0016e+001	-1.5022	-33.701500
1877	3.0032e+001	-1.4930	-33.593975
1878	3.0048e+001	-1.4790	-33.440104
1879	3.0064e+001	-1.4651	-33.651445
1880	3.0080e+001	-1.4517	-33.504062
1881	3.0096e+001	-1.4422	-33.461423
1882	3.0112e+001	-1.4311	-33.518893
1883	3.0128e+001	-1.4149	-33.314968
1884	3.0144e+001	-1.4064	-33.420638
1885	3.0160e+001	-1.3922	-33.385415
1886	3.0176e+001	-1.3800	-33.315895
1887	3.0192e+001	-1.3695	-33.184270
1888	3.0208e+001	-1.3575	-33.150900
1889	3.0224e+001	-1.3441	-33.182416
1890	3.0240e+001	-1.3319	-33.102700
1891	3.0256e+001	-1.3190	-33.071184
1892	3.0272e+001	-1.3114	-33.074892
1893	3.0288e+001	-1.2983	-33.000737
1894	3.0304e+001	-1.2875	-33.033179
1895	3.0320e+001	-1.2737	-32.988687
1896	3.0336e+001	-1.2624	-32.822765
1897	3.0352e+001	-1.2502	-32.791249
1898	3.0368e+001	-1.2367	-32.788469
1899	3.0384e+001	-1.2241	-32.743976
1900	3.0400e+001	-1.2142	-32.655917
1901	3.0416e+001	-1.2007	-32.624401
1902	3.0432e+001	-1.1873	-32.613278
1903	3.0448e+001	-1.1779	-32.616059
1904	3.0464e+001	-1.1640	-32.526146
1905	3.0480e+001	-1.1549	-32.380617
1906	3.0496e+001	-1.1414	-32.398229
1907	3.0512e+001	-1.1291	-32.318513
1908	3.0528e+001	-1.1154	-32.319440
1909	3.0544e+001	-1.1047	-32.233235
1910	3.0560e+001	-1.0922	-32.160007
1911	3.0576e+001	-1.0809	-32.121076
1912	3.0592e+001	-1.0691	-32.036724
1913	3.0608e+001	-1.0559	-32.020040
1914	3.0624e+001	-1.0438	-32.040432
1915	3.0640e+001	-1.0324	-31.944958
1916	3.0656e+001	-1.0225	-31.854118
1917	3.0672e+001	-1.0077	-31.834653
1918	3.0688e+001	-0.9964	-31.697466
1919	3.0704e+001	-0.9865	-31.668731
1920	3.0720e+001	-0.9727	-31.601065
1921	3.0736e+001	-0.9599	-31.460171
1922	3.0752e+001	-0.9499	-31.482417
1923	3.0768e+001	-0.9345	-31.335035
1924	3.0784e+001	-0.9248	-31.412897
1925	3.0800e+001	-0.9131	-31.231218
1926	3.0816e+001	-0.8997	-31.132963
1927	3.0832e+001	-0.8885	-31.107009
1928	3.0848e+001	-0.8778	-31.048612
1929	3.0864e+001	-0.8640	-30.968895
1930	3.0880e+001	-0.8517	-30.765897
1931	3.0896e+001	-0.8395	-30.713061
1932	3.0912e+001	-0.8282	-30.751993
1933	3.0928e+001	-0.8177	-30.554556
1934	3.0944e+001	-0.8047	-30.494305
1935	3.0960e+001	-0.7925	-30.422931
1936	3.0976e+001	-0.7808	-30.322822
1937	3.0992e+001	-0.7680	-30.281110
1938	3.1008e+001	-0.7580	-30.100357
1939	3.1024e+001	-0.7455	-29.952975
1940	3.1040e+001	-0.7323	-29.914970
1941	3.1056e+001	-0.7218	-29.805592
1942	3.1072e+001	-0.7100	-29.621132
1943	3.1088e+001	-0.6972	-29.517315
1944	3.1104e+001	-0.6822	-29.529366
1945	3.1120e+001	-0.6776	-29.412572
1946	3.1136e+001	-0.6595	-29.280020
1947	3.1152e+001	-0.6506	-29.142834
1948	3.1168e+001	-0.6385	-28.928712
1949	3.1184e+001	-0.6255	-29.046432
1950	3.1200e+001	-0.6146	-28.804502
1951	3.1216e+001	-0.5992	-28.581111
1952	3.1232e+001	-0.5880	-28.417971
1953	3.1248e+001	-0.5779	-28.325277
1954	3.1264e+001	-0.5642	-28.292834
1955	3.1280e+001	-0.5507	-28.025877
1956	3.1296e+001	-0.5421	-27.873860
1957	3.1312e+001	-0.5289	-27.669934
1958	3.1328e+001	-0.5156	-27.661592
1959	3.1344e+001	-0.5046	-27.459520
1960	3.1360e+001	-0.4940	-27.187001
1961	3.1376e+001	-0.4794	-26.983075
1962	3.1392e+001	-0.4710	-26.837547
1963	3.1408e+001	-0.4558	-26.584493
1964	3.1424e+001	-0.4433	-26.473261
1965	3.1440e+001	-0.4320	-26.257285
1966	3.1456e+001	-0.4216	-25.954178
1967	3.1472e+001	-0.4093	-25.844799
1968	3.1488e+001	-0.3974	-25.639947
1969	3.1504e+001	-0.3860	-25.328496
1970	3.1520e+001	-0.3725	-25.183895
1971	3.1536e+001	-0.3607	-24.909522
1972	3.1552e+001	-0.3497	-24.688911
1973	3.1568e+001	-0.3359	-24.434931
1974	3.1584e+001	-0.3254	-24.228225
1975	3.1600e+001	-0.3128	-23.940875
1976	3.1616e+001	-0.3010	-23.700799
1977	3.1632e+001	-0.2901	-23.328171
1978	3.1648e+001	-0.2767	-23.151126
1979	3.1664e+001	-0.2640	-22.828553
1980	3.1680e+001	-0.2524	-22.574573
1981	3.1696e+001	-0.2412	-22.301127
1982	3.1712e+001	-0.2288	-21.996165
1983	3.1728e+001	-0.2168	-21.627245
1984	3.1744e+001	-0.2066	-21.394585
1985	3.1760e+001	-0.1930	-21.044203
1986	3.1776e+001	-0.1807	-20.757780
1987	3.1792e+001	-0.1705	-20.421303
1988	3.1808e+001	-0.1558	-19.990278
1989	3.1824e+001	-0.1457	-19.705709
1990	3.1840e+001	-0.1326	-19.280246
1991	3.1856e+001	-0.1230	-18.902984
1992	3.1872e+001	-0.1099	-18.592460
1993	3.1888e+001	-0.0984	-18.223540
1994	3.1904e+001	-0.0867	-17.876867
1995	3.1920e+001	-0.0728	-17.551513
1996	3.1936e+001	-0.0571	-17.105657
1997	3.1952e+001	-0.0504	-16.619016
1998	3.1968e+001	-0.0384	-16.298297
1999	3.1984e+001	-0.0259	-15.840391
2000	3.2000e+001	-0.0131	-15.395462
2001	3.2016e+001	-0.0034	-14.978341

Center data before PMax,±Pr and ±Vc Calc.

PMax (µC/cm2):	3.65e+001
Pr (µC/cm2):	2.19e+001
-Pr (µC/cm2):	-1.50e+001
Vc:	3.68e-001
-Vc:	-3.10e-001
C (Max-Eff) (nF):	5.98e-002
Vert. (±Pr) Shift (µC/cm2):	3.44e+000
Horiz. Shift (±Vc):	2.90e-002
Offset (µC/cm2):	1.08e+001

A (Loop Area - µC/cm2·Volts):	5.16e+001



Hysteresis Version: 5.12.0 - Radiant Technologies, Inc., 1999 - 11/30/16

