»»»»»»»»»»»»»»»»»»»»»»»»»»»»»»»»»»»» Hysteresis ««««««««««««««««««««««««««««««««««««
»»»  Executed Version:	5.16.2
»»»  Vision Version:	5.16.10 (R)
»»»  Vision Compiled:	4/26/18
»»»  Driver Version:	5.16.6
»»»  Windows Version:	Windows 8
»»»  Processor Information:	x86 (AMD or Intel) - 8 Processors
»»»  Tester Name:	PPM21016-863
»»»  Tester S/N:	PPM21016-863
»»»  Internal Amp Type:	 RTI ML200V    
»»»  Internal Amp S/N:	 iAB2-0000     
»»»  Execution Count:	1
»»»»»»»»»»»»»»»»»»»»»»»»»»»»»»»»»»»»»»»»»»««««««««««««««««««««««««««««««««««««««««««

Stored:	5/16/2018 - 8:58:21
Configured:	05/15/18 08:22:15 PM
Executed:	05/16/18 08:58:01 AM

»»»»»»»»»»»»»»»»»»»»»»»»»»»»»»»»»»» Sample Info ««««««««««««««««««««««««««««««««««««
Sample Name:	Internal Reference Cap.
Lot Name:	N/A
Wafer Name:	N/A
Die Row/Column:	0/0
Capacitor Number:	0
Sample Area (cm2):	7.85e-005
Sample Thickness (µm):	1.00e-001

Mux Loop Adjustment:	Disabled

Amplifier:	Internal

»»»»»»»»»»»»»»»»»»»»»»»»»»»»»»»»»»» Tester Info «««««««««««««««««««««««««««««««««««
Tester Name:	PPM21016-863
Tester Serial Number:	PPM21016-863
Return Signal Amp. Level:	0.21 [Index: 2]

»»»»»»»»»»»»»»»»»»»»»»»»»»»»»»»» Hysteresis Info ««««««««««««««««««««««««««««««««««
Task Name:	Hyst-1
Field (kV/cm):	0.03
Field:	300.00 (kV/cm)
Hysteresis Period (ms):	2.00e-001
Preset:	Enabled
Preset Delay (ms):	1.00e+003
Profile:	Double Bipolar

»»»»»»»»»»»»»»»»»»»»»»»»»»»»»»»»»»»»»» Data «««««««««««««««««««««««««««««««««««««««
Points:	401

Valid Data

Point	Time (ms)	Field (kV/cm)	Measured Polarization
   1	5.0000e-004	0.282288	-34.161292
   2	1.0000e-003	6.614685	-33.839292
   3	1.5000e-003	12.413025	-33.566079
   4	2.0000e-003	18.318176	-33.224564
   5	2.5000e-003	24.383545	-32.722049
   6	3.0000e-003	30.181885	-31.956079
   7	3.5000e-003	36.186218	-31.014472
   8	4.0000e-003	42.060852	-29.736229
   9	4.5000e-003	47.904968	-28.184773
  10	5.0000e-003	53.642273	-26.438166
  11	5.5000e-003	59.448242	-24.198801
  12	6.0000e-003	64.796448	-21.769164
  13	6.5000e-003	70.777893	-18.597950
  14	7.0000e-003	76.751709	-15.036433
  15	7.5000e-003	82.656860	-10.845552
  16	8.0000e-003	88.699341	-6.049700
  17	8.5000e-003	93.879700	-0.341515
  18	9.0000e-003	100.028992	6.035064
  19	9.5000e-003	105.491638	12.733644
  20	1.0000e-002	111.595154	20.178678
  21	1.0500e-002	117.134094	27.818864
  22	1.1000e-002	123.596191	35.371232
  23	1.1500e-002	130.668640	41.777084
  24	1.2000e-002	138.214111	44.923904
  25	1.2500e-002	144.119263	45.836238
  26	1.3000e-002	150.245667	46.363147
  27	1.3500e-002	156.578064	46.865663
  28	1.4000e-002	162.277222	47.251087
  29	1.4500e-002	168.426514	47.529178
  30	1.5000e-002	174.591064	47.992663
  31	1.5500e-002	181.190491	48.412239
  32	1.6000e-002	186.424255	48.748876
  33	1.6500e-002	192.306519	49.012331
  34	1.7000e-002	198.356628	49.368482
  35	1.7500e-002	204.338074	49.631937
  36	1.8000e-002	210.433960	49.997846
  37	1.8500e-002	216.514587	50.285695
  38	1.9000e-002	222.267151	50.622331
  39	1.9500e-002	228.431702	50.924816
  40	2.0000e-002	234.260559	51.163877
  41	2.0500e-002	240.539551	51.407817
  42	2.1000e-002	246.315002	51.656635
  43	2.1500e-002	252.609253	51.954241
  44	2.2000e-002	258.544922	52.017666
  45	2.2500e-002	264.617920	52.276241
  46	2.3000e-002	270.462036	52.500666
  47	2.3500e-002	276.435852	52.690939
  48	2.4000e-002	282.478333	52.915363
  49	2.4500e-002	288.208008	53.047090
  50	2.5000e-002	293.983459	53.369091
  51	2.5500e-002	300.346375	53.534969
  52	2.6000e-002	294.143677	53.388606
  53	2.6500e-002	287.818909	53.178818
  54	2.7000e-002	281.600952	53.120272
  55	2.7500e-002	275.917053	53.032454
  56	2.8000e-002	269.752502	52.866575
  57	2.8500e-002	263.793945	52.793393
  58	2.9000e-002	257.774353	52.583605
  59	2.9500e-002	251.731873	52.412848
  60	3.0000e-002	245.742798	52.242090
  61	3.0500e-002	239.784241	52.100605
  62	3.1000e-002	234.077454	51.910332
  63	3.1500e-002	227.714539	51.807878
  64	3.2000e-002	221.710205	51.524908
  65	3.2500e-002	215.843201	51.490756
  66	3.3000e-002	209.815979	51.290726
  67	3.3500e-002	203.849792	51.105332
  68	3.4000e-002	197.738647	50.910180
  69	3.4500e-002	192.047119	50.695513
  70	3.5000e-002	185.905457	50.441816
  71	3.5500e-002	179.893494	50.402786
  72	3.6000e-002	173.751831	50.119816
  73	3.6500e-002	167.510986	49.944180
  74	3.7000e-002	161.628723	49.519725
  75	3.7500e-002	155.906677	49.427028
  76	3.8000e-002	149.719238	49.231876
  77	3.8500e-002	143.692017	49.002573
  78	3.9000e-002	137.557983	48.778149
  79	3.9500e-002	131.698608	48.534209
  80	4.0000e-002	125.694275	48.153663
  81	4.0500e-002	120.063782	47.948754
  82	4.1000e-002	113.838196	47.670663
  83	4.1500e-002	107.666016	47.504784
  84	4.2000e-002	101.875305	47.173026
  85	4.2500e-002	95.710754	46.972996
  86	4.3000e-002	90.202332	46.563178
  87	4.3500e-002	84.175110	46.260693
  88	4.4000e-002	77.026367	45.880147
  89	4.4500e-002	71.487427	45.636207
  90	4.5000e-002	65.612793	45.309328
  91	4.5500e-002	59.928894	44.860480
  92	4.6000e-002	53.764343	44.514086
  93	4.6500e-002	47.584534	44.094510
  94	4.7000e-002	41.831970	43.767631
  95	4.7500e-002	35.774231	43.269994
  96	4.8000e-002	29.777527	42.796751
  97	4.8500e-002	23.872375	42.308872
  98	4.9000e-002	17.761230	41.713660
  99	4.9500e-002	12.054443	40.942811
 100	5.0000e-002	6.164551	40.313447
 101	5.0500e-002	0.396729	39.479174
 102	5.1000e-002	-5.874634	38.274112
 103	5.1500e-002	-11.550903	36.825112
 104	5.2000e-002	-17.326355	34.985808
 105	5.2500e-002	-23.536682	32.507382
 106	5.3000e-002	-28.884888	29.394713
 107	5.3500e-002	-34.507751	25.579499
 108	5.4000e-002	-40.321350	21.003194
 109	5.4500e-002	-45.845032	15.602372
 110	5.5000e-002	-51.673889	9.362399
 111	5.5500e-002	-57.907104	2.590638
 112	5.6000e-002	-63.232422	-4.825124
 113	5.6500e-002	-69.366455	-12.514098
 114	5.7000e-002	-75.477600	-19.842041
 115	5.7500e-002	-81.970215	-26.506469
 116	5.8000e-002	-88.424683	-31.643836
 117	5.8500e-002	-95.138550	-35.395626
 118	5.9000e-002	-101.898193	-37.849658
 119	5.9500e-002	-107.879639	-39.503568
 120	6.0000e-002	-114.051819	-40.762296
 121	6.0500e-002	-119.712830	-41.684387
 122	6.1000e-002	-126.167297	-42.367418
 123	6.1500e-002	-131.202698	-43.084600
 124	6.2000e-002	-137.367249	-43.709085
 125	6.2500e-002	-144.134521	-44.153055
 126	6.3000e-002	-150.291443	-44.640934
 127	6.3500e-002	-155.998230	-45.211753
 128	6.4000e-002	-162.269592	-45.699632
 129	6.4500e-002	-168.060303	-46.197268
 130	6.5000e-002	-174.140930	-46.499753
 131	6.5500e-002	-180.473328	-46.987632
 132	6.6000e-002	-185.966492	-47.338905
 133	6.6500e-002	-192.245483	-47.782875
 134	6.7000e-002	-198.226929	-48.168300
 135	6.7500e-002	-204.177856	-48.509815
 136	6.8000e-002	-209.907532	-48.758633
 137	6.8500e-002	-216.125488	-49.100149
 138	6.9000e-002	-222.259521	-49.563634
 139	6.9500e-002	-228.340149	-49.895392
 140	7.0000e-002	-234.298706	-50.251543
 141	7.0500e-002	-239.242554	-50.539392
 142	7.1000e-002	-246.749878	-50.924816
 143	7.1500e-002	-252.647400	-51.051665
 144	7.2000e-002	-257.957458	-51.432211
 145	7.2500e-002	-264.076233	-51.690787
 146	7.3000e-002	-270.568848	-52.022544
 147	7.3500e-002	-276.245117	-52.359181
 148	7.4000e-002	-282.409668	-52.588484
 149	7.4500e-002	-288.185120	-52.808030
 150	7.5000e-002	-294.296265	-53.076363
 151	7.5500e-002	-300.117493	-53.359333
 152	7.6000e-002	-293.502808	-53.198333
 153	7.6500e-002	-287.628174	-53.183696
 154	7.7000e-002	-281.578064	-53.012939
 155	7.7500e-002	-275.352478	-52.832424
 156	7.8000e-002	-269.432068	-52.686060
 157	7.8500e-002	-263.641357	-52.525060
 158	7.9000e-002	-257.476807	-52.320151
 159	7.9500e-002	-251.571655	-52.017666
 160	8.0000e-002	-245.094299	-51.861544
 161	8.0500e-002	-239.471436	-51.651756
 162	8.1000e-002	-233.177185	-51.529786
 163	8.1500e-002	-227.569580	-51.329756
 164	8.2000e-002	-221.611023	-51.085817
 165	8.2500e-002	-215.423584	-50.905301
 166	8.3000e-002	-209.388733	-50.773574
 167	8.3500e-002	-203.666687	-50.436937
 168	8.4000e-002	-197.395325	-50.261301
 169	8.4500e-002	-191.146851	-49.978331
 170	8.5000e-002	-185.668945	-49.705119
 171	8.5500e-002	-180.747986	-49.622179
 172	8.6000e-002	-173.828125	-49.207482
 173	8.6500e-002	-167.251587	-48.919634
 174	8.7000e-002	-161.521912	-48.753755
 175	8.7500e-002	-155.410767	-48.461027
 176	8.8000e-002	-149.436951	-48.143906
 177	8.8500e-002	-143.539429	-47.899966
 178	8.9000e-002	-137.283325	-47.616996
 179	8.9500e-002	-130.859375	-47.231572
 180	9.0000e-002	-125.434875	-46.987632
 181	9.0500e-002	-119.377136	-46.636359
 182	9.1000e-002	-113.380432	-46.407056
 183	9.1500e-002	-107.444763	-46.060662
 184	9.2000e-002	-101.455688	-45.684995
 185	9.2500e-002	-95.336914	-45.284934
 186	9.3000e-002	-89.355469	-45.006843
 187	9.3500e-002	-83.480835	-44.543358
 188	9.4000e-002	-77.568054	-44.157934
 189	9.4500e-002	-71.334839	-43.748115
 190	9.5000e-002	-65.345764	-43.435873
 191	9.5500e-002	-59.211731	-42.889448
 192	9.6000e-002	-53.390503	-42.533297
 193	9.6500e-002	-47.676086	-42.006387
 194	9.7000e-002	-41.778564	-41.577054
 195	9.7500e-002	-35.476685	-41.035508
 196	9.8000e-002	-30.570984	-40.635447
 197	9.8500e-002	-24.154663	-40.093901
 198	9.9000e-002	-17.967224	-39.532840
 199	9.9500e-002	-11.672974	-38.747355
 200	1.0000e-001	-5.798340	-38.098476
 201	1.0050e-001	0.450134	-37.493506
 202	1.0100e-001	6.156921	-36.625081
 203	1.0150e-001	12.229919	-35.751778
 204	1.0200e-001	18.035889	-34.868717
 205	1.0250e-001	24.055481	-33.834413
 206	1.0300e-001	30.014038	-32.551291
 207	1.0350e-001	35.781860	-31.360866
 208	1.0400e-001	41.831970	-29.867956
 209	1.0450e-001	47.546387	-28.131107
 210	1.0500e-001	53.680420	-26.121045
 211	1.0550e-001	59.181213	-23.857286
 212	1.0600e-001	65.132141	-21.066618
 213	1.0650e-001	70.938110	-17.773434
 214	1.0700e-001	76.622009	-13.914311
 215	1.0750e-001	82.412720	-9.396551
 216	1.0800e-001	87.684631	-4.234790
 217	1.0850e-001	93.666077	1.697819
 218	1.0900e-001	99.533081	8.254914
 219	1.0950e-001	105.499268	15.373069
 220	1.1000e-001	111.175537	22.871770
 221	1.1050e-001	117.195129	30.804684
 222	1.1100e-001	123.863220	38.064324
 223	1.1150e-001	131.408691	43.387085
 224	1.1200e-001	138.267517	45.265419
 225	1.1250e-001	144.264221	45.928935
 226	1.1300e-001	150.398254	46.475359
 227	1.1350e-001	156.280518	46.929087
 228	1.1400e-001	162.101746	47.290117
 229	1.1450e-001	168.121338	47.685299
 230	1.1500e-001	174.011230	47.851178
 231	1.1550e-001	180.046082	48.397603
 232	1.1600e-001	186.408997	48.822058
 233	1.1650e-001	192.367554	49.163573
 234	1.1700e-001	198.936462	49.427028
 235	1.1750e-001	204.986572	49.744149
 236	1.1800e-001	210.479736	50.031998
 237	1.1850e-001	216.278076	50.261301
 238	1.1900e-001	222.358704	50.534513
 239	1.1950e-001	228.576660	50.856513
 240	1.2000e-001	234.466553	51.061423
 241	1.2050e-001	240.577698	51.349271
 242	1.2100e-001	246.368408	51.598090
 243	1.2150e-001	252.372742	51.778605
 244	1.2200e-001	258.384705	52.066453
 245	1.2250e-001	264.526367	52.188423
 246	1.2300e-001	270.538330	52.407969
 247	1.2350e-001	276.565552	52.671423
 248	1.2400e-001	282.478333	52.837302
 249	1.2450e-001	288.391113	53.027575
 250	1.2500e-001	294.921875	53.364212
 251	1.2550e-001	300.399780	53.471545
 252	1.2600e-001	293.670654	53.398363
 253	1.2650e-001	287.315369	53.271515
 254	1.2700e-001	281.845093	53.027575
 255	1.2750e-001	275.825500	53.032454
 256	1.2800e-001	269.737244	52.793393
 257	1.2850e-001	263.633728	52.661666
 258	1.2900e-001	257.659912	52.568969
 259	1.2950e-001	251.976013	52.349423
 260	1.3000e-001	245.819092	52.188423
 261	1.3050e-001	239.845276	51.968878
 262	1.3100e-001	233.749390	51.856665
 263	1.3150e-001	227.989197	51.695665
 264	1.3200e-001	221.794128	51.505393
 265	1.3250e-001	215.782166	51.300483
 266	1.3300e-001	209.785461	51.217544
 267	1.3350e-001	203.926086	50.958968
 268	1.3400e-001	198.661804	50.910180
 269	1.3450e-001	191.825867	50.695513
 270	1.3500e-001	185.844421	50.417422
 271	1.3550e-001	179.161072	50.144210
 272	1.3600e-001	173.744202	50.031998
 273	1.3650e-001	167.716980	49.788058
 274	1.3700e-001	161.628723	49.583149
 275	1.3750e-001	155.662537	49.383119
 276	1.3800e-001	149.559021	49.124543
 277	1.3850e-001	143.669128	48.870846
 278	1.3900e-001	137.847900	48.636664
 279	1.3950e-001	131.622314	48.421997
 280	1.4000e-001	126.022339	48.080482
 281	1.4050e-001	119.468689	47.914603
 282	1.4100e-001	113.578796	47.621875
 283	1.4150e-001	107.704163	47.392572
 284	1.4200e-001	101.814270	47.065693
 285	1.4250e-001	95.588684	46.826632
 286	1.4300e-001	89.622498	46.504632
 287	1.4350e-001	83.618164	46.172874
 288	1.4400e-001	77.644348	45.855753
 289	1.4450e-001	72.578430	45.553268
 290	1.4500e-001	66.177368	45.158086
 291	1.4550e-001	59.448242	44.758025
 292	1.4600e-001	53.642273	44.533601
 293	1.4650e-001	47.782898	44.035964
 294	1.4700e-001	41.824341	43.782267
 295	1.4750e-001	35.858154	43.240721
 296	1.4800e-001	29.785156	42.684539
 297	1.4850e-001	23.742676	42.182024
 298	1.4900e-001	17.868042	41.635599
 299	1.4950e-001	11.741638	41.035508
 300	1.5000e-001	5.882263	40.308568
 301	1.5050e-001	0.213623	39.420628
 302	1.5100e-001	-5.813599	38.430234
 303	1.5150e-001	-11.734009	36.898293
 304	1.5200e-001	-17.082214	35.029717
 305	1.5250e-001	-23.048401	32.639109
 306	1.5300e-001	-28.793335	29.575229
 307	1.5350e-001	-34.423828	25.789287
 308	1.5400e-001	-39.924622	21.413012
 309	1.5450e-001	-45.150757	15.978039
 310	1.5500e-001	-51.834106	9.825884
 311	1.5550e-001	-57.235718	2.971183
 312	1.5600e-001	-63.163757	-4.386033
 313	1.5650e-001	-69.320679	-12.016461
 314	1.5700e-001	-75.408936	-19.427344
 315	1.5750e-001	-81.840515	-26.140560
 316	1.5800e-001	-88.394165	-31.399896
 317	1.5850e-001	-95.153809	-35.151686
 318	1.5900e-001	-101.539612	-37.791112
 319	1.5950e-001	-107.452393	-39.557234
 320	1.6000e-001	-114.158630	-40.645205
 321	1.6050e-001	-120.117188	-41.699023
 322	1.6100e-001	-126.144409	-42.499145
 323	1.6150e-001	-131.820679	-43.030933
 324	1.6200e-001	-138.252258	-43.660297
 325	1.6250e-001	-143.981934	-44.240873
 326	1.6300e-001	-150.268555	-44.714116
 327	1.6350e-001	-156.318665	-45.197116
 328	1.6400e-001	-162.063599	-45.660601
 329	1.6450e-001	-168.228149	-46.172874
 330	1.6500e-001	-174.034119	-46.650996
 331	1.6550e-001	-180.335999	-47.046178
 332	1.6600e-001	-185.951233	-47.319390
 333	1.6650e-001	-191.940308	-47.777996
 334	1.6700e-001	-198.379517	-48.139027
 335	1.6750e-001	-204.383850	-48.456148
 336	1.6800e-001	-210.205078	-48.875724
 337	1.6850e-001	-216.300964	-49.222119
 338	1.6900e-001	-222.145081	-49.602664
 339	1.6950e-001	-227.958679	-49.792937
 340	1.7000e-001	-235.069275	-50.246665
 341	1.7050e-001	-240.226746	-50.461331
 342	1.7100e-001	-246.215820	-50.876029
 343	1.7150e-001	-252.326965	-51.173635
 344	1.7200e-001	-258.247375	-51.451726
 345	1.7250e-001	-264.541626	-51.798120
 346	1.7300e-001	-270.622253	-52.007908
 347	1.7350e-001	-276.351929	-52.320151
 348	1.7400e-001	-282.684326	-52.651908
 349	1.7450e-001	-288.169861	-52.871454
 350	1.7500e-001	-294.143677	-53.149545
 351	1.7550e-001	-300.170898	-53.471545
 352	1.7600e-001	-293.792725	-53.330060
 353	1.7650e-001	-287.460327	-53.173939
 354	1.7700e-001	-281.494141	-53.081242
 355	1.7750e-001	-275.573730	-52.944636
 356	1.7800e-001	-269.607544	-52.710454
 357	1.7850e-001	-263.412476	-52.534817
 358	1.7900e-001	-257.446289	-52.393332
 359	1.7950e-001	-251.571655	-52.159150
 360	1.8000e-001	-245.559692	-51.949362
 361	1.8050e-001	-239.562988	-51.744453
 362	1.8100e-001	-233.505249	-51.554180
 363	1.8150e-001	-227.478027	-51.451726
 364	1.8200e-001	-221.824646	-51.237059
 365	1.8250e-001	-215.621948	-50.900422
 366	1.8300e-001	-209.465027	-50.734544
 367	1.8350e-001	-203.651428	-50.505240
 368	1.8400e-001	-197.441101	-50.246665
 369	1.8450e-001	-191.207886	-50.022240
 370	1.8500e-001	-185.577393	-49.763664
 371	1.8550e-001	-179.321289	-49.563634
 372	1.8600e-001	-173.324585	-49.392876
 373	1.8650e-001	-167.625427	-48.929391
 374	1.8700e-001	-161.384583	-48.685452
 375	1.8750e-001	-155.326843	-48.461027
 376	1.8800e-001	-149.971008	-48.256118
 377	1.8850e-001	-143.196106	-47.929239
 378	1.8900e-001	-137.199402	-47.924360
 379	1.8950e-001	-131.599426	-47.460875
 380	1.9000e-001	-125.503540	-46.997390
 381	1.9050e-001	-119.491577	-46.811996
 382	1.9100e-001	-113.594055	-46.294844
 383	1.9150e-001	-107.887268	-46.036268
 384	1.9200e-001	-101.608276	-45.655723
 385	1.9250e-001	-95.436096	-45.353238
 386	1.9300e-001	-89.553833	-45.031237
 387	1.9350e-001	-83.549500	-44.879995
 388	1.9400e-001	-77.484131	-44.304298
 389	1.9450e-001	-71.449280	-43.787146
 390	1.9500e-001	-65.368652	-43.338297
 391	1.9550e-001	-59.700012	-43.040691
 392	1.9600e-001	-53.497314	-42.430842
 393	1.9650e-001	-47.531128	-42.152751
 394	1.9700e-001	-41.603088	-41.572175
 395	1.9750e-001	-35.873413	-41.133084
 396	1.9800e-001	-29.785156	-40.640326
 397	1.9850e-001	-23.719788	-40.059750
 398	1.9900e-001	-17.852783	-39.401113
 399	1.9950e-001	-11.474609	-38.737597
 400	2.0000e-001	-6.011963	-38.069203
 401	2.0050e-001	-0.495911	-37.415445

Center data before PMax,±Pr and ±Vc Calc.

PMax (µC/cm2):	5.35e+001
Pr (µC/cm2):	3.94e+001
-Pr (µC/cm2):	-3.74e+001
Ec:	9.20e-003
-Ec:	-5.96e-003
C (Max-Eff) (nF):	1.40e+000
K (Eff):	2.02e+003
Vert. (±Pr) Shift (µC/cm2):	9.85e-001
Horiz. Shift (±Ec):	1.62e-003
Offset (µC/cm2):	3.41e+001

A (Loop Area - µC/cm2·Volts):	1.32e+004



Hysteresis Version: 5.16.2 - Radiant Technologies, Inc., 1999 - 3/20/18

